# scan = 38
# date = 8/17/2016
# time = 11:52:06 PM
# proposal = IPTS-16819
# experiment = Investing the magnetic structure and moment of BaFe4O7 and K-doped
# experiment_number = 500
# command = scan 2theta 32 38 0.05 preset time 45
# builtin_command = scan 2theta 32 38 0.05 preset time 45
# users = Hans-Conrad Zur Loye
# local_contact = Stuart Calder
# scan_title = KBaFe4O7, Zur Loye, Ge115, op-21-12, T= 75 C - Before heating
# monochromator = 
# analyzer = 
# sense = -+-
# collimation = 48-40-40-120
# samplename = BaFe4O7 and K1.15Ba0.43Fe2O7
# sampletype = powder
# samplemosaic = 30.000000
# latticeconstants = 5.000000,5.000000,5.000000,90.000000,90.000000,90.000000
# ubmatrix = 0.000000,0.000000,0.000000,0.000000,0.000000,0.000000,0.000000,0.000000,0.000000
# mode = 3
# ubconf = UB15Aug2016_102130AM.ini
# preset_type = normal 
# preset_channel = time
# preset_value = 45.000000
# def_x = 2theta
# def_y = monitor
# col_headers = 
#   Pt.     2theta       time    monitor   detector     anode1     anode2     anode3     anode4     anode5     anode6     anode7     anode8     anode9    anode10    anode11    anode12    anode13    anode14    anode15    anode16    anode17    anode18    anode19    anode20    anode21    anode22    anode23    anode24    anode25    anode26    anode27    anode28    anode29    anode30    anode31    anode32    anode33    anode34    anode35    anode36    anode37    anode38    anode39    anode40    anode41    anode42    anode43    anode44         m1       marc     mtrans   coltrans     colrot       coll   pgfilter  colltrans         s1        sgl        sgu    slit_bt    slit_lf    slit_rt    slit_tp        stl        stu furnace_setpoint furnace_ramp furnace_temp
      1    32.0000     45.000  15337.000  52139.000     88.000    636.000    149.000    357.000     86.000     77.000    472.000     74.000     96.000     83.000     98.000    289.000    258.000     84.000     91.000     83.000     84.000    152.000     81.000     94.000    204.000    105.000     88.000     91.000    183.000    116.000    131.000    135.000    137.000    319.000    161.000    164.000    124.000    111.000    110.000    209.000    395.000    201.000    145.000     91.000    288.000    109.000    169.000  44921.000     0.0000     0.0000    -0.0310     0.0000    -0.8000     0.0000   -80.0000    -0.0016     0.0005     0.0403    -0.8000    13.0000     5.5000     5.5000    15.0000    -1.0055     1.5000    75.0000     1.0000    73.172
      2    32.0500     45.000  15274.000  52244.000     91.000    498.000    105.000    305.000     96.000     81.000    536.000     80.000     98.000     99.000     92.000    403.000    319.000     72.000     93.000     86.000    104.000    206.000     89.000     91.000    231.000    101.000     76.000    113.000    145.000    132.000    152.000    161.000    164.000    299.000    168.000    177.000    129.000    115.000     85.000    219.000    362.000    157.000    153.000     83.000    300.000    120.000    156.000  44902.000     0.0000     0.0000    -0.0310     0.0000    -0.8000     0.0000   -80.0000    -0.0016     0.0005     0.0403    -0.8000    13.0000     5.5000     5.5000    15.0000    -1.0055     1.5000    75.0000     1.0000    73.461
      3    32.1000     45.000  15238.000  52120.000    111.000    363.000    112.000    263.000     87.000     83.000    526.000     74.000    101.000    112.000     90.000    548.000    460.000     82.000     85.000     95.000    121.000    206.000     86.000     77.000    193.000    102.000     87.000     90.000    119.000    129.000    164.000    163.000    143.000    322.000    175.000    158.000    133.000    108.000    108.000    205.000    367.000    171.000    134.000    124.000    284.000    101.000    156.000  44702.000     0.0000     0.0000    -0.0310     0.0000    -0.8000     0.0000   -80.0000    -0.0016     0.0005     0.0403    -0.8000    13.0000     5.5000     5.5000    15.0000    -1.0055     1.5000    75.0000     1.0000    74.232
      4    32.1500     45.000  15188.000  52429.000    147.000    245.000     92.000    238.000    112.000     76.000    540.000     74.000    123.000    108.000     72.000    613.000    645.000     69.000     89.000    105.000    102.000    249.000     86.000     81.000    161.000     96.000     81.000    110.000    119.000    145.000    161.000    162.000    165.000    265.000    159.000    118.000    129.000    124.000     92.000    230.000    390.000    164.000    162.000    103.000    261.000     98.000    147.000  44921.000     0.0000     0.0000    -0.0310     0.0000    -0.8000     0.0000   -80.0000    -0.0016     0.0005     0.0403    -0.8000    13.0000     5.5000     5.5000    15.0000    -1.0055     1.5000    75.0000     1.0000    75.080
      5    32.2000     45.000  15408.000  52602.000    190.000    153.000     93.000    189.000     98.000     90.000    470.000     86.000    122.000     96.000     77.000    790.000    828.000     83.000     84.000    109.000    101.000    250.000     82.000    102.000    174.000     96.000    109.000    120.000    106.000    137.000    169.000    178.000    168.000    257.000    145.000    142.000    142.000    122.000    116.000    243.000    441.000    164.000    148.000    107.000    250.000     95.000    177.000  44703.000     0.0000     0.0000    -0.0310     0.0000    -0.8000     0.0000   -80.0000    -0.0016     0.0005     0.0403    -0.8000    13.0000     5.5000     5.5000    15.0000    -1.0055     1.5000    75.0000     1.0000    75.776
      6    32.2500     45.000  15174.000  53097.000    275.000    106.000    103.000    196.000    124.000     86.000    437.000     66.000    136.000     91.000     91.000    905.000   1036.000     88.000     99.000    129.000    141.000    279.000    100.000    100.000    175.000    113.000     97.000    107.000    126.000    127.000    172.000    136.000    151.000    218.000    129.000    142.000    126.000    129.000     93.000    209.000    432.000    151.000    140.000    121.000    241.000    109.000    164.000  44901.000     0.0000     0.0000    -0.0310     0.0000    -0.8000     0.0000   -80.0000    -0.0016     0.0005     0.0403    -0.8000    13.0000     5.5000     5.5000    15.0000    -1.0055     1.5000    75.0000     1.0000    76.255
      7    32.3000     45.000  15255.000  53112.000    329.000    116.000    118.000    178.000    147.000     90.000    329.000     79.000    142.000     84.000     78.000    950.000   1189.000     81.000     86.000    113.000    135.000    297.000     80.000    109.000    158.000    134.000    101.000    101.000    118.000    123.000    182.000    151.000    137.000    243.000    132.000    117.000    126.000    136.000    132.000    240.000    406.000    146.000    137.000    109.000    237.000    134.000    160.000  44722.000     0.0000     0.0000    -0.0310     0.0000    -0.8000     0.0000   -80.0000    -0.0016     0.0005     0.0403    -0.8000    13.0000     5.5000     5.5000    15.0000    -1.0055     1.5000    75.0000     1.0000    76.741
      8    32.3500     45.000  15296.000  53459.000    478.000     94.000     83.000    208.000    156.000     97.000    253.000     82.000    171.000    114.000     75.000   1063.000   1241.000    112.000     83.000    123.000    160.000    281.000     88.000    114.000    137.000    130.000     89.000     99.000    124.000    134.000    193.000    182.000    173.000    225.000    156.000    117.000    112.000    126.000    105.000    241.000    449.000    148.000    149.000    115.000    197.000    125.000    155.000  44702.000     0.0000     0.0000    -0.0310     0.0000    -0.8000     0.0000   -80.0000    -0.0016     0.0005     0.0403    -0.8000    13.0000     5.5000     5.5000    15.0000    -1.0055     1.5000    75.0000     1.0000    77.338
      9    32.4000     45.000  15454.000  53336.000    613.000     95.000     78.000    252.000    191.000     83.000    176.000     66.000    156.000    140.000     91.000   1061.000   1189.000     98.000     84.000    146.000    170.000    251.000     84.000    108.000    132.000    108.000     98.000    100.000    139.000    108.000    166.000    181.000    142.000    188.000    134.000     98.000    113.000    122.000     97.000    271.000    427.000    127.000    123.000     97.000    242.000    120.000    149.000  44722.000     0.0000     0.0000    -0.0310     0.0000    -0.8000     0.0000   -80.0000    -0.0016     0.0005     0.0403    -0.8000    13.0000     5.5000     5.5000    15.0000    -1.0055     1.5000    75.0000     1.0000    77.927
     10    32.4500     45.000  15227.000  53778.000    789.000    111.000     77.000    223.000    263.000     73.000    135.000     80.000    178.000    156.000     84.000   1155.000   1082.000    105.000    101.000    143.000    234.000    281.000     89.000    122.000    124.000    115.000     90.000    103.000    121.000    112.000    219.000    168.000    146.000    181.000    127.000    137.000    126.000    128.000    121.000    248.000    449.000    148.000    136.000    101.000    199.000    131.000    164.000  44703.000     0.0000     0.0000    -0.0310     0.0000    -0.8000     0.0000   -80.0000    -0.0016     0.0005     0.0403    -0.8000    13.0000     5.5000     5.5000    15.0000    -1.0055     1.5000    75.0000     1.0000    78.445
     11    32.5000     45.000  15334.000  54052.000    881.000    119.000    104.000    318.000    333.000     82.000    112.000     84.000    177.000    137.000     79.000   1095.000   1010.000    113.000     92.000    169.000    230.000    226.000     97.000    114.000    101.000    127.000     86.000     95.000    115.000    125.000    208.000    184.000    146.000    174.000    157.000    121.000     99.000    142.000     96.000    201.000    452.000    158.000    152.000    107.000    238.000    112.000    163.000  44921.000     0.0000     0.0000    -0.0310     0.0000    -0.8000     0.0000   -80.0000    -0.0016     0.0005     0.0403    -0.8000    13.0000     5.5000     5.5000    15.0000    -1.0055     1.5000    75.0000     1.0000    78.943
     12    32.5500     45.000  15277.000  54214.000    939.000    111.000    113.000    376.000    482.000     84.000    104.000     87.000    223.000    181.000    101.000    971.000    828.000    125.000     84.000    182.000    233.000    229.000    106.000    115.000    101.000    134.000    106.000     96.000    158.000     89.000    191.000    175.000    155.000    196.000    123.000    116.000    103.000    118.000    110.000    234.000    483.000    162.000    132.000    122.000    223.000    130.000    161.000  44922.000     0.0000     0.0000    -0.0310     0.0000    -0.8000     0.0000   -80.0000    -0.0016     0.0005     0.0403    -0.8000    13.0000     5.5000     5.5000    15.0000    -1.0055     1.5000    75.0000     1.0000    79.377
     13    32.6000     45.000  15288.000  53802.000    874.000     90.000     95.000    413.000    605.000     81.000     79.000     84.000    206.000    218.000     98.000    775.000    617.000    117.000     73.000    179.000    265.000    211.000     88.000    114.000    105.000    150.000     98.000     84.000    145.000     91.000    245.000    217.000    137.000    175.000    112.000    119.000    111.000    122.000    120.000    238.000    446.000    146.000    130.000    109.000    219.000    113.000    187.000  44901.000     0.0000     0.0000    -0.0310     0.0000    -0.8000     0.0000   -80.0000    -0.0016     0.0005     0.0403    -0.8000    13.0000     5.5000     5.5000    15.0000    -1.0055     1.5000    75.0000     1.0000    79.754
     14    32.6500     45.000  15171.000  53490.000    745.000    127.000    109.000    363.000    736.000     80.000     85.000     76.000    206.000    214.000     99.000    701.000    447.000    107.000     73.000    195.000    286.000    197.000     66.000     91.000     93.000    158.000    104.000     93.000    132.000     98.000    211.000    215.000    127.000    149.000    123.000    115.000    136.000    110.000    131.000    231.000    445.000    164.000    131.000    115.000    206.000    125.000    154.000  44921.000     0.0000     0.0000    -0.0310     0.0000    -0.8000     0.0000   -80.0000    -0.0016     0.0005     0.0403    -0.8000    13.0000     5.5000     5.5000    15.0000    -1.0055     1.5000    75.0000     1.0000    80.102
     15    32.7000     45.000  15392.000  52935.000    531.000     91.000    101.000    339.000    872.000     87.000    102.000     73.000    213.000    272.000     96.000    450.000    291.000     99.000     90.000    162.000    267.000    200.000     70.000    100.000    108.000    142.000    101.000     96.000    144.000     88.000    237.000    215.000    116.000    145.000    131.000    128.000    115.000    106.000     97.000    195.000    467.000    170.000    131.000    116.000    173.000    129.000    178.000  44901.000     0.0000     0.0000    -0.0310     0.0000    -0.8000     0.0000   -80.0000    -0.0016     0.0005     0.0403    -0.8000    13.0000     5.5000     5.5000    15.0000    -1.0055     1.5000    75.0000     1.0000    80.392
     16    32.7500     45.000  15320.000  52421.000    353.000    109.000     99.000    290.000    931.000     80.000    112.000     82.000    232.000    262.000     70.000    385.000    211.000    106.000    109.000    197.000    277.000    180.000     77.000    103.000    108.000    138.000    121.000    102.000    113.000     84.000    231.000    185.000    131.000    147.000    102.000    131.000    110.000    103.000    126.000    232.000    456.000    126.000    125.000    116.000    176.000    119.000    172.000  44702.000     0.0000     0.0000    -0.0310     0.0000    -0.8000     0.0000   -80.0000    -0.0016     0.0005     0.0403    -0.8000    13.0000     5.5000     5.5000    15.0000    -1.0055     1.5000    75.0000     1.0000    80.637
     17    32.8000     45.000  15332.000  52176.000    218.000     87.000    122.000    252.000    899.000     99.000     74.000     56.000    206.000    306.000    112.000    299.000    157.000    102.000     85.000    165.000    273.000    237.000     84.000     96.000    115.000    130.000    129.000     85.000    119.000     86.000    246.000    217.000    127.000    126.000    111.000    143.000     92.000    129.000    125.000    217.000    461.000    158.000    129.000    108.000    176.000    140.000    176.000  44702.000     0.0000     0.0000    -0.0310     0.0000    -0.8000     0.0000   -80.0000    -0.0016     0.0005     0.0403    -0.8000    13.0000     5.5000     5.5000    15.0000    -1.0055     1.5000    75.0000     1.0000    80.817
     18    32.8500     45.000  15190.000  51624.000    161.000    104.000    126.000    200.000    802.000     97.000     79.000     68.000    243.000    286.000    110.000    211.000    149.000     90.000     79.000    164.000    233.000    210.000    106.000     83.000    129.000    144.000    101.000     81.000    127.000     73.000    232.000    214.000    112.000    115.000    100.000    137.000     88.000    116.000    105.000    197.000    392.000    127.000    136.000    119.000    201.000    123.000    152.000  44702.000     0.0000     0.0000    -0.0310     0.0000    -0.8000     0.0000   -80.0000    -0.0016     0.0005     0.0403    -0.8000    13.0000     5.5000     5.5000    15.0000    -1.0055     1.5000    75.0000     1.0000    80.976
     19    32.9000     45.000  15359.000  51455.000    108.000    101.000    113.000    135.000    675.000     74.000    103.000     72.000    235.000    347.000     91.000    198.000    114.000     91.000     78.000    148.000    195.000    229.000     78.000     80.000    127.000    160.000    108.000     88.000    102.000     81.000    206.000    234.000    146.000    109.000    103.000    147.000    111.000    116.000    138.000    229.000    443.000    139.000    131.000    109.000    158.000    139.000    144.000  44722.000     0.0000     0.0000    -0.0310     0.0000    -0.8000     0.0000   -80.0000    -0.0016     0.0005     0.0403    -0.8000    13.0000     5.5000     5.5000    15.0000    -1.0055     1.5000    75.0000     1.0000    81.088
     20    32.9500     45.000  15225.000  51402.000    106.000     95.000    124.000    113.000    493.000     86.000     80.000     79.000    248.000    326.000    110.000    157.000     98.000     76.000     97.000    154.000    212.000    234.000     90.000     67.000    138.000    135.000    132.000    100.000    108.000     93.000    247.000    184.000    119.000     89.000    101.000    131.000    110.000    131.000    149.000    216.000    391.000    148.000    126.000    133.000    181.000    123.000    150.000  44922.000     0.0000     0.0000    -0.0310     0.0000    -0.8000     0.0000   -80.0000    -0.0016     0.0005     0.0403    -0.8000    13.0000     5.5000     5.5000    15.0000    -1.0055     1.5000    75.0000     1.0000    81.175
     21    33.0000     45.000  15323.000  51026.000     89.000    106.000    129.000    109.000    402.000     73.000     78.000     85.000    213.000    339.000     92.000    149.000    118.000     83.000    115.000    145.000    168.000    273.000     82.000     86.000    153.000    135.000    122.000    109.000     90.000     98.000    225.000    228.000    126.000    100.000     95.000    158.000    111.000    117.000    118.000    198.000    351.000    126.000    134.000    135.000    171.000    130.000    160.000  44702.000     0.0000     0.0000    -0.0310     0.0000    -0.8000     0.0000   -80.0000    -0.0016     0.0005     0.0403    -0.8000    13.0000     5.5000     5.5000    15.0000    -1.0055     1.5000    75.0000     1.0000    81.236
     22    33.0500     45.000  15369.000  50883.000     84.000     76.000    134.000     81.000    354.000     92.000     83.000     74.000    195.000    263.000     89.000    129.000     98.000     79.000     97.000    138.000    154.000    269.000     97.000     73.000    130.000    133.000    116.000     91.000    113.000     71.000    229.000    212.000    120.000     96.000    104.000    158.000     99.000    121.000    129.000    203.000    413.000    111.000    128.000    110.000    168.000    114.000    153.000  44902.000     0.0000     0.0000    -0.0310     0.0000    -0.8000     0.0000   -80.0000    -0.0016     0.0005     0.0403    -0.8000    13.0000     5.5000     5.5000    15.0000    -1.0055     1.5000    75.0000     1.0000    81.244
     23    33.1000     45.000  15329.000  50890.000     99.000    120.000    119.000     97.000    332.000     78.000     95.000     89.000    183.000    267.000     92.000    117.000    128.000     79.000     97.000    156.000    145.000    276.000     98.000     90.000    154.000    120.000    122.000    114.000     92.000    102.000    232.000    233.000    123.000    104.000     97.000    171.000    105.000    115.000    137.000    195.000    352.000    124.000    108.000    129.000    169.000    129.000    184.000  44722.000     0.0000     0.0000    -0.0310     0.0000    -0.8000     0.0000   -80.0000    -0.0016     0.0005     0.0403    -0.8000    13.0000     5.5000     5.5000    15.0000    -1.0055     1.5000    75.0000     1.0000    81.247
     24    33.1500     45.000  15323.000  50897.000    103.000     90.000    111.000     98.000    343.000     84.000    104.000     87.000    150.000    201.000    101.000    123.000    101.000     97.000     90.000    125.000    146.000    335.000    115.000     90.000    174.000    115.000    121.000    112.000    108.000     85.000    206.000    192.000    124.000     91.000    102.000    147.000    103.000     97.000    137.000    186.000    368.000    135.000    115.000    128.000    133.000    135.000    168.000  44921.000     0.0000     0.0000    -0.0310     0.0000    -0.8000     0.0000   -80.0000    -0.0016     0.0005     0.0403    -0.8000    13.0000     5.5000     5.5000    15.0000    -1.0055     1.5000    75.0000     1.0000    81.231
     25    33.2000     45.000  15315.000  50495.000    104.000     92.000    109.000     93.000    342.000     78.000     87.000     60.000    131.000    181.000     96.000    109.000    126.000    109.000     83.000    115.000    123.000    285.000    120.000     84.000    155.000    110.000    137.000    101.000    101.000     90.000    174.000    195.000    132.000     95.000    117.000    163.000     79.000    128.000    150.000    199.000    347.000    136.000    115.000    122.000    129.000    129.000    142.000  44722.000     0.0000     0.0000    -0.0310     0.0000    -0.8000     0.0000   -80.0000    -0.0016     0.0005     0.0403    -0.8000    13.0000     5.5000     5.5000    15.0000    -1.0055     1.5000    75.0000     1.0000    81.173
     26    33.2500     45.000  15394.000  50767.000     98.000     89.000    106.000    100.000    370.000     85.000     96.000     80.000    105.000    154.000    118.000     98.000    117.000    118.000     84.000    122.000    151.000    274.000    104.000     60.000    163.000    102.000    141.000    110.000    101.000     89.000    189.000    191.000    122.000     97.000    109.000    203.000     96.000    106.000    160.000    151.000    335.000    141.000    122.000    129.000    136.000    150.000    174.000  44921.000     0.0000     0.0000    -0.0310     0.0000    -0.8000     0.0000   -80.0000    -0.0016     0.0005     0.0403    -0.8000    13.0000     5.5000     5.5000    15.0000    -1.0055     1.5000    75.0000     1.0000    81.110
     27    33.3000     45.000  15560.000  50602.000     74.000     89.000    116.000     99.000    313.000     87.000     61.000     68.000    102.000    129.000    105.000    102.000    137.000    150.000     88.000    115.000    128.000    270.000    106.000     81.000    174.000     96.000    140.000     99.000    104.000     88.000    187.000    170.000    146.000    104.000    107.000    156.000    106.000     93.000    159.000    187.000    345.000    138.000    105.000    133.000    115.000    154.000    154.000  44922.000     0.0000     0.0000    -0.0310     0.0000    -0.8000     0.0000   -80.0000    -0.0016     0.0005     0.0403    -0.8000    13.0000     5.5000     5.5000    15.0000    -1.0055     1.5000    75.0000     1.0000    81.011
     28    33.3500     45.000  15470.000  50745.000     80.000     88.000    143.000     91.000    263.000     93.000    104.000     95.000    101.000    106.000    159.000    104.000    161.000    162.000     91.000    129.000    137.000    239.000    144.000     78.000    128.000     76.000    122.000    130.000    119.000     80.000    186.000    149.000    167.000     90.000    103.000    187.000    101.000    114.000    162.000    194.000    343.000    134.000     97.000    137.000    129.000    148.000    160.000  44921.000     0.0000     0.0000    -0.0310     0.0000    -0.8000     0.0000   -80.0000    -0.0016     0.0005     0.0403    -0.8000    13.0000     5.5000     5.5000    15.0000    -1.0055     1.5000    75.0000     1.0000    80.926
     29    33.4000     45.000  15464.000  50341.000     81.000     99.000    185.000    109.000    223.000     88.000     92.000     75.000    101.000     96.000    167.000    114.000    137.000    157.000     86.000    108.000    134.000    198.000    134.000     75.000    141.000     99.000    146.000    131.000     81.000     92.000    188.000    154.000    155.000     77.000    102.000    171.000     95.000    115.000    135.000    176.000    311.000    124.000    121.000    135.000    136.000    140.000    155.000  44702.000     0.0000     0.0000    -0.0310     0.0000    -0.8000     0.0000   -80.0000    -0.0016     0.0005     0.0403    -0.8000    13.0000     5.5000     5.5000    15.0000    -1.0055     1.5000    75.0000     1.0000    80.812
     30    33.4500     45.000  15353.000  50715.000     78.000     89.000    223.000     81.000    186.000     92.000     79.000     98.000    103.000    117.000    218.000    114.000    132.000    190.000     99.000    117.000    135.000    181.000    157.000     83.000    115.000     96.000    144.000    162.000    124.000     76.000    172.000    153.000    177.000     93.000    111.000    178.000    105.000    103.000    155.000    174.000    287.000    136.000    107.000    142.000    136.000    141.000    155.000  44901.000     0.0000     0.0000    -0.0310     0.0000    -0.8000     0.0000   -80.0000    -0.0016     0.0005     0.0403    -0.8000    13.0000     5.5000     5.5000    15.0000    -1.0055     1.5000    75.0000     1.0000    80.650
     31    33.5000     45.000  15330.000  50466.000     61.000     87.000    268.000     91.000    140.000     85.000     78.000     85.000     90.000     99.000    265.000    144.000    110.000    224.000    106.000    108.000    132.000    115.000    173.000     85.000    107.000     96.000    122.000    181.000    128.000     79.000    155.000    143.000    169.000     96.000    137.000    148.000     96.000    100.000    146.000    174.000    282.000    141.000    104.000    138.000    142.000    140.000    174.000  44722.000     0.0000     0.0000    -0.0310     0.0000    -0.8000     0.0000   -80.0000    -0.0016     0.0005     0.0403    -0.8000    13.0000     5.5000     5.5000    15.0000    -1.0055     1.5000    75.0000     1.0000    80.498
     32    33.5500     45.000  15310.000  50858.000    102.000     81.000    316.000    113.000     94.000     83.000     76.000     85.000     97.000    102.000    350.000    141.000    115.000    248.000     79.000    115.000    142.000    125.000    185.000     83.000    110.000     88.000    126.000    167.000    114.000     71.000    193.000    120.000    161.000     90.000    128.000    174.000     83.000    114.000    158.000    160.000    274.000    130.000    119.000    153.000    143.000    154.000    175.000  44921.000     0.0000     0.0000    -0.0310     0.0000    -0.8000     0.0000   -80.0000    -0.0016     0.0005     0.0403    -0.8000    13.0000     5.5000     5.5000    15.0000    -1.0055     1.5000    75.0000     1.0000    80.359
     33    33.6000     45.000  15346.000  50870.000     99.000    102.000    369.000    100.000    131.000     82.000     93.000     90.000     99.000    107.000    374.000    146.000    112.000    226.000     72.000    126.000    129.000    111.000    205.000     76.000    125.000     92.000     96.000    195.000    138.000     70.000    159.000    124.000    164.000     92.000    135.000    152.000    105.000    115.000    167.000    181.000    288.000    131.000    115.000    146.000    128.000    140.000    181.000  44782.000     0.0000     0.0000    -0.0310     0.0000    -0.8000     0.0000   -80.0000    -0.0016     0.0005     0.0403    -0.8000    13.0000     5.5000     5.5000    15.0000    -1.0055     1.5000    75.0000     1.0000    80.185
     34    33.6500     45.000  15262.000  50921.000     77.000     89.000    323.000    100.000    111.000     76.000     78.000    106.000     95.000    120.000    437.000    190.000     94.000    244.000    100.000    124.000    141.000    108.000    219.000     78.000     98.000     82.000    116.000    221.000    136.000     78.000    163.000    118.000    182.000     87.000    135.000    166.000     98.000    104.000    197.000    174.000    272.000    129.000    120.000    148.000    127.000    156.000    182.000  44722.000     0.0000     0.0000    -0.0310     0.0000    -0.8000     0.0000   -80.0000    -0.0016     0.0005     0.0403    -0.8000    13.0000     5.5000     5.5000    15.0000    -1.0055     1.5000    75.0000     1.0000    79.993
     35    33.7000     45.000  15410.000  51260.000     82.000     81.000    303.000     99.000     92.000    115.000     86.000    132.000    100.000    140.000    477.000    224.000     88.000    283.000    108.000    117.000    133.000     98.000    212.000     89.000     89.000     79.000    104.000    251.000    135.000     61.000    179.000    149.000    181.000     84.000    160.000    162.000     82.000    118.000    199.000    173.000    261.000    143.000    105.000    138.000    129.000    150.000    148.000  44921.000     0.0000     0.0000    -0.0310     0.0000    -0.8000     0.0000   -80.0000    -0.0016     0.0005     0.0403    -0.8000    13.0000     5.5000     5.5000    15.0000    -1.0055     1.5000    75.0000     1.0000    79.821
     36    33.7500     45.000  15206.000  51029.000     74.000     90.000    221.000    110.000     92.000     90.000     82.000    110.000     94.000    109.000    496.000    220.000    121.000    235.000    112.000    129.000    143.000     87.000    252.000     72.000    112.000     63.000     89.000    309.000    171.000     82.000    159.000    103.000    170.000     98.000    177.000    155.000     89.000    106.000    176.000    192.000    265.000    144.000    104.000    186.000    124.000    137.000    177.000  44702.000     0.0000     0.0000    -0.0310     0.0000    -0.8000     0.0000   -80.0000    -0.0016     0.0005     0.0403    -0.8000    13.0000     5.5000     5.5000    15.0000    -1.0055     1.5000    75.0000     1.0000    79.640
     37    33.8000     45.000  15503.000  51097.000     88.000    111.000    168.000    119.000     88.000     82.000     80.000    123.000     96.000    115.000    566.000    250.000     89.000    218.000    118.000    127.000    130.000     83.000    225.000     79.000    101.000     70.000    103.000    365.000    158.000     66.000    158.000    112.000    230.000     79.000    176.000    173.000    104.000    107.000    174.000    166.000    238.000    127.000     90.000    182.000    124.000    162.000    174.000  44703.000     0.0000     0.0000    -0.0310     0.0000    -0.8000     0.0000   -80.0000    -0.0016     0.0005     0.0403    -0.8000    13.0000     5.5000     5.5000    15.0000    -1.0055     1.5000    75.0000     1.0000    79.432
     38    33.8500     45.000  15476.000  51305.000     98.000     99.000    124.000    113.000    102.000     90.000     88.000    145.000     95.000    113.000    498.000    247.000     77.000    196.000    125.000    151.000    133.000     93.000    245.000     77.000    102.000     94.000    102.000    321.000    155.000     63.000    176.000    111.000    221.000     82.000    180.000    170.000     99.000    120.000    183.000    189.000    240.000    143.000    100.000    155.000    131.000    162.000    176.000  44921.000     0.0000     0.0000    -0.0310     0.0000    -0.8000     0.0000   -80.0000    -0.0016     0.0005     0.0403    -0.8000    13.0000     5.5000     5.5000    15.0000    -1.0055     1.5000    75.0000     1.0000    79.238
     39    33.9000     45.000  15380.000  51150.000     98.000    110.000    106.000    134.000    112.000     62.000     83.000    187.000    118.000    101.000    489.000    307.000     95.000    171.000    112.000    159.000    113.000     95.000    226.000     86.000     82.000     75.000     97.000    357.000    182.000     72.000    159.000    116.000    213.000     89.000    189.000    147.000     92.000     99.000    188.000    221.000    229.000    141.000    123.000    163.000    100.000    133.000    197.000  44722.000     0.0000     0.0000    -0.0310     0.0000    -0.8000     0.0000   -80.0000    -0.0016     0.0005     0.0403    -0.8000    13.0000     5.5000     5.5000    15.0000    -1.0055     1.5000    75.0000     1.0000    79.022
     40    33.9500     45.000  15300.000  51227.000     93.000    144.000    116.000    154.000    129.000     90.000     98.000    170.000    120.000     99.000    407.000    294.000     93.000    161.000    117.000    175.000    111.000     99.000    214.000     89.000     87.000     74.000     83.000    411.000    158.000     95.000    179.000     98.000    241.000     84.000    188.000    167.000     94.000    110.000    188.000    205.000    239.000    139.000     79.000    177.000    116.000    137.000    183.000  44722.000     0.0000     0.0000    -0.0310     0.0000    -0.8000     0.0000   -80.0000    -0.0016     0.0005     0.0403    -0.8000    13.0000     5.5000     5.5000    15.0000    -1.0055     1.5000    75.0000     1.0000    78.788
     41    34.0000     45.000  15238.000  51305.000     95.000    213.000     99.000    131.000    109.000     83.000    105.000    207.000    140.000     88.000    348.000    327.000     89.000     88.000    104.000    170.000    125.000     85.000    208.000     90.000    105.000     84.000     93.000    438.000    174.000     79.000    182.000    118.000    210.000    116.000    227.000    160.000     89.000    102.000    178.000    237.000    191.000    135.000     94.000    200.000    127.000    161.000    179.000  44722.000     0.0000     0.0000    -0.0310     0.0000    -0.8000     0.0000   -80.0000    -0.0016     0.0005     0.0403    -0.8000    13.0000     5.5000     5.5000    15.0000    -1.0055     1.5000    75.0000     1.0000    78.569
     42    34.0500     45.000  15423.000  51649.000     94.000    277.000    116.000    161.000    135.000     96.000    125.000    227.000    160.000     88.000    281.000    338.000     80.000    115.000    116.000    195.000    126.000     85.000    172.000     93.000     97.000     96.000    109.000    397.000    200.000     88.000    181.000    114.000    237.000    109.000    207.000    159.000     99.000    106.000    211.000    213.000    226.000    143.000    102.000    179.000    102.000    123.000    169.000  44902.000     0.0000     0.0000    -0.0310     0.0000    -0.8000     0.0000   -80.0000    -0.0016     0.0005     0.0403    -0.8000    13.0000     5.5000     5.5000    15.0000    -1.0055     1.5000    75.0000     1.0000    78.353
     43    34.1000     45.000  15376.000  51741.000    133.000    353.000    131.000    153.000    122.000     94.000    133.000    222.000    162.000     91.000    213.000    349.000     92.000     98.000    105.000    220.000    138.000     70.000    175.000     84.000    106.000     91.000     92.000    417.000    209.000     84.000    187.000    107.000    268.000     99.000    204.000    166.000     96.000    102.000    207.000    225.000    215.000    161.000     91.000    222.000    114.000    167.000    171.000  44802.000     0.0000     0.0000    -0.0310     0.0000    -0.8000     0.0000   -80.0000    -0.0016     0.0005     0.0403    -0.8000    13.0000     5.5000     5.5000    15.0000    -1.0055     1.5000    75.0000     1.0000    78.113
     44    34.1500     45.000  15149.000  51528.000    139.000    468.000    137.000    159.000    136.000     90.000    138.000    256.000    143.000    105.000    175.000    311.000     76.000     78.000     97.000    205.000     94.000    106.000    171.000     98.000    101.000     88.000     81.000    397.000    182.000     71.000    171.000    106.000    222.000    117.000    231.000    145.000     96.000     93.000    204.000    232.000    200.000    140.000     94.000    215.000    115.000    152.000    171.000  44722.000     0.0000     0.0000    -0.0310     0.0000    -0.8000     0.0000   -80.0000    -0.0016     0.0005     0.0403    -0.8000    13.0000     5.5000     5.5000    15.0000    -1.0055     1.5000    75.0000     1.0000    77.897
     45    34.2000     45.000  15577.000  51994.000    186.000    661.000    140.000    147.000    142.000    114.000    120.000    270.000    189.000     88.000    163.000    300.000    105.000     88.000     98.000    209.000    111.000     74.000    154.000     95.000     93.000     85.000    104.000    394.000    137.000     83.000    168.000    104.000    252.000    112.000    221.000    155.000    107.000    108.000    212.000    232.000    200.000    147.000     93.000    193.000     93.000    145.000    181.000  44921.000     0.0000     0.0000    -0.0310     0.0000    -0.8000     0.0000   -80.0000    -0.0016     0.0005     0.0403    -0.8000    13.0000     5.5000     5.5000    15.0000    -1.0055     1.5000    75.0000     1.0000    77.664
     46    34.2500     45.000  15247.000  51800.000    221.000    741.000    174.000    150.000    127.000    129.000    143.000    234.000    172.000    107.000    113.000    243.000     95.000     75.000     94.000    194.000    104.000     92.000    139.000    112.000     83.000     72.000     75.000    380.000    174.000     82.000    166.000    115.000    270.000    114.000    165.000    150.000    104.000     96.000    187.000    251.000    213.000    150.000     97.000    212.000    122.000    170.000    191.000  44702.000     0.0000     0.0000    -0.0310     0.0000    -0.8000     0.0000   -80.0000    -0.0016     0.0005     0.0403    -0.8000    13.0000     5.5000     5.5000    15.0000    -1.0055     1.5000    75.0000     1.0000    77.418
     47    34.3000     45.000  15413.000  51955.000    326.000    830.000    226.000    147.000     99.000    160.000    121.000    216.000    161.000     88.000     97.000    193.000     89.000     68.000     87.000    190.000    103.000     81.000    112.000    107.000     95.000     84.000     85.000    363.000    147.000     86.000    142.000     92.000    256.000    111.000    205.000    154.000     95.000    103.000    211.000    257.000    178.000    141.000    112.000    224.000     95.000    142.000    175.000  44901.000     0.0000     0.0000    -0.0310     0.0000    -0.8000     0.0000   -80.0000    -0.0016     0.0005     0.0403    -0.8000    13.0000     5.5000     5.5000    15.0000    -1.0055     1.5000    75.0000     1.0000    77.152
     48    34.3500     45.000  15380.000  52050.000    441.000    807.000    280.000    108.000     95.000    202.000    114.000    217.000    158.000     88.000    115.000    219.000     92.000     70.000     86.000    184.000    105.000     92.000    100.000    118.000     91.000     73.000    107.000    322.000    162.000     74.000    153.000    108.000    279.000    138.000    209.000    137.000    100.000     91.000    199.000    284.000    210.000    144.000     93.000    243.000    113.000    137.000    170.000  44722.000     0.0000     0.0000    -0.0310     0.0000    -0.8000     0.0000   -80.0000    -0.0016     0.0005     0.0403    -0.8000    13.0000     5.5000     5.5000    15.0000    -1.0055     1.5000    75.0000     1.0000    76.911
     49    34.4000     45.000  15708.000  52452.000    538.000    751.000    366.000    124.000     88.000    274.000     98.000    146.000    153.000    108.000    115.000    126.000     90.000     62.000     93.000    159.000    109.000     88.000    109.000    149.000    100.000     77.000    100.000    319.000    181.000     85.000    162.000    107.000    293.000    147.000    207.000    150.000    113.000     95.000    217.000    317.000    163.000    165.000    103.000    239.000    114.000    163.000    168.000  44921.000     0.0000     0.0000    -0.0310     0.0000    -0.8000     0.0000   -80.0000    -0.0016     0.0005     0.0403    -0.8000    13.0000     5.5000     5.5000    15.0000    -1.0055     1.5000    75.0000     1.0000    76.667
     50    34.4500     45.000  15259.000  52356.000    630.000    639.000    458.000     97.000     73.000    288.000     87.000    143.000    139.000     96.000    147.000    120.000     97.000     63.000     81.000    159.000    117.000     81.000     95.000    153.000    115.000     91.000    103.000    233.000    140.000     77.000    162.000    126.000    282.000    128.000    204.000    150.000    102.000     89.000    234.000    306.000    211.000    161.000     88.000    231.000    126.000    149.000    183.000  44902.000     0.0000     0.0000    -0.0310     0.0000    -0.8000     0.0000   -80.0000    -0.0016     0.0005     0.0403    -0.8000    13.0000     5.5000     5.5000    15.0000    -1.0055     1.5000    75.0000     1.0000    76.424
     51    34.5000     45.000  15465.000  52004.000    656.000    417.000    486.000    105.000     88.000    384.000     75.000    120.000     98.000     91.000    149.000    139.000    102.000     74.000     84.000    119.000    113.000     74.000     98.000    161.000    104.000     95.000    105.000    233.000    170.000     93.000    125.000    104.000    279.000    139.000    191.000    154.000    108.000    100.000    233.000    356.000    173.000    146.000    102.000    225.000    119.000    131.000    184.000  44702.000     0.0000     0.0000    -0.0310     0.0000    -0.8000     0.0000   -80.0000    -0.0016     0.0005     0.0403    -0.8000    13.0000     5.5000     5.5000    15.0000    -1.0055     1.5000    75.0000     1.0000    76.176
     52    34.5500     45.000  15412.000  52281.000    716.000    290.000    483.000     95.000     90.000    404.000     97.000     98.000    104.000    112.000    195.000    139.000     74.000     61.000     83.000    132.000    133.000     83.000     86.000    162.000    104.000     75.000     92.000    203.000    169.000     81.000    154.000    125.000    298.000    170.000    199.000    133.000    117.000    104.000    252.000    360.000    191.000    155.000     95.000    236.000    106.000    155.000    168.000  44902.000     0.0000     0.0000    -0.0310     0.0000    -0.8000     0.0000   -80.0000    -0.0016     0.0005     0.0403    -0.8000    13.0000     5.5000     5.5000    15.0000    -1.0055     1.5000    75.0000     1.0000    75.922
     53    34.6000     45.000  15461.000  52214.000    663.000    189.000    519.000     99.000    107.000    460.000     93.000     85.000     99.000     98.000    230.000    166.000     97.000     65.000     93.000     90.000    129.000    102.000     80.000    185.000    110.000     90.000     85.000    200.000    186.000     93.000    162.000    146.000    281.000    170.000    201.000    109.000     97.000    120.000    201.000    330.000    174.000    154.000    125.000    227.000     97.000    136.000    169.000  44902.000     0.0000     0.0000    -0.0310     0.0000    -0.8000     0.0000   -80.0000    -0.0016     0.0005     0.0403    -0.8000    13.0000     5.5000     5.5000    15.0000    -1.0055     1.5000    75.0000     1.0000    75.677
     54    34.6500     45.000  15424.000  52240.000    567.000    146.000    478.000    103.000     94.000    533.000    100.000     77.000     95.000     87.000    329.000    228.000    100.000     57.000     99.000     89.000    160.000     91.000     91.000    208.000     97.000     78.000    110.000    202.000    154.000     99.000    149.000    123.000    296.000    126.000    191.000    132.000    120.000     91.000    223.000    348.000    180.000    138.000     97.000    223.000     98.000    161.000    171.000  44901.000     0.0000     0.0000    -0.0310     0.0000    -0.8000     0.0000   -80.0000    -0.0016     0.0005     0.0403    -0.8000    13.0000     5.5000     5.5000    15.0000    -1.0055     1.5000    75.0000     1.0000    75.440
     55    34.7000     45.000  15351.000  52019.000    449.000    108.000    405.000     84.000     78.000    527.000     85.000     81.000     89.000     79.000    452.000    264.000     74.000     87.000     91.000    113.000    176.000     74.000     91.000    201.000     80.000     95.000    111.000    157.000    144.000     92.000    141.000    131.000    315.000    225.000    151.000    124.000    101.000    111.000    235.000    375.000    195.000    142.000    105.000    217.000    110.000    151.000    201.000  44702.000     0.0000     0.0000    -0.0310     0.0000    -0.8000     0.0000   -80.0000    -0.0016     0.0005     0.0403    -0.8000    13.0000     5.5000     5.5000    15.0000    -1.0055     1.5000    75.0000     1.0000    75.206
     56    34.7500     45.000  15473.000  52256.000    299.000    115.000    350.000     99.000     85.000    536.000     94.000     94.000     82.000    101.000    555.000    363.000     79.000     63.000    105.000     93.000    205.000     91.000     93.000    213.000     95.000     91.000    108.000    158.000    148.000    112.000    166.000    140.000    270.000    186.000    151.000    133.000    121.000    132.000    246.000    359.000    176.000    168.000    100.000    227.000    111.000    159.000    202.000  44782.000     0.0000     0.0000    -0.0310     0.0000    -0.8000     0.0000   -80.0000    -0.0016     0.0005     0.0403    -0.8000    13.0000     5.5000     5.5000    15.0000    -1.0055     1.5000    75.0000     1.0000    74.970
     57    34.8000     45.000  15448.000  52087.000    201.000     82.000    320.000    105.000     81.000    494.000     80.000     86.000     89.000     83.000    641.000    522.000     93.000     59.000    105.000     95.000    203.000     76.000    111.000    189.000     73.000     84.000    105.000    141.000    170.000    112.000    150.000    156.000    261.000    193.000    142.000    137.000    111.000     99.000    237.000    375.000    167.000    164.000    119.000    211.000    112.000    163.000    168.000  44722.000     0.0000     0.0000    -0.0310     0.0000    -0.8000     0.0000   -80.0000    -0.0016     0.0005     0.0403    -0.8000    13.0000     5.5000     5.5000    15.0000    -1.0055     1.5000    75.0000     1.0000    74.714
     58    34.8500     45.000  15506.000  52089.000    134.000     84.000    238.000    100.000     90.000    481.000     75.000     96.000     92.000     85.000    722.000    618.000     95.000     84.000     94.000    106.000    241.000     87.000     97.000    176.000     91.000     92.000    102.000    134.000    171.000    112.000    157.000    132.000    275.000    170.000    124.000    115.000    115.000     83.000    251.000    395.000    141.000    130.000    108.000    199.000    110.000    157.000    207.000  44723.000     0.0000     0.0000    -0.0310     0.0000    -0.8000     0.0000   -80.0000    -0.0016     0.0005     0.0403    -0.8000    13.0000     5.5000     5.5000    15.0000    -1.0055     1.5000    75.0000     1.0000    74.461
     59    34.9000     45.000  15472.000  52577.000    125.000    110.000    235.000     73.000    107.000    420.000    103.000     99.000     79.000     82.000    814.000    845.000     83.000     67.000    117.000    104.000    256.000     75.000     98.000    202.000    113.000     84.000    124.000    127.000    147.000    110.000    127.000    159.000    219.000    161.000    129.000    100.000    118.000    106.000    223.000    394.000    174.000    168.000    118.000    201.000    112.000    147.000    201.000  44921.000     0.0000     0.0000    -0.0310     0.0000    -0.8000     0.0000   -80.0000    -0.0016     0.0005     0.0403    -0.8000    13.0000     5.5000     5.5000    15.0000    -1.0055     1.5000    75.0000     1.0000    74.215
     60    34.9500     45.000  15464.000  52999.000    113.000     89.000    211.000    124.000     86.000    341.000     78.000    111.000     96.000    111.000    898.000   1041.000     93.000     86.000    140.000    127.000    295.000    103.000    110.000    162.000    100.000     97.000    106.000    133.000    145.000    140.000    153.000    157.000    271.000    179.000    111.000    140.000    121.000     96.000    241.000    358.000    150.000    169.000    105.000    180.000     86.000    206.000    218.000  44922.000     0.0000     0.0000    -0.0310     0.0000    -0.8000     0.0000   -80.0000    -0.0016     0.0005     0.0403    -0.8000    13.0000     5.5000     5.5000    15.0000    -1.0055     1.5000    75.0000     1.0000    73.961
     61    35.0000     45.000  15484.000  52778.000    107.000     93.000    187.000    110.000     91.000    225.000     82.000    119.000     98.000     90.000   1006.000   1190.000    115.000     80.000    130.000    124.000    313.000     83.000    121.000    143.000    112.000     96.000    102.000    122.000    146.000    112.000    146.000    153.000    254.000    150.000    118.000    137.000     96.000    105.000    249.000    368.000    152.000    161.000    117.000    203.000    104.000    157.000    209.000  44702.000     0.0000     0.0000    -0.0310     0.0000    -0.8000     0.0000   -80.0000    -0.0016     0.0005     0.0403    -0.8000    13.0000     5.5000     5.5000    15.0000    -1.0055     1.5000    75.0000     1.0000    73.676
     62    35.0500     45.000  15356.000  53040.000     94.000     81.000    161.000    102.000     92.000    184.000     77.000    122.000    108.000     82.000   1124.000   1280.000    125.000     62.000    137.000    144.000    300.000     81.000    130.000    144.000    111.000     92.000    132.000    142.000    146.000    128.000    167.000    155.000    217.000    167.000    118.000    115.000    104.000    117.000    253.000    384.000    148.000    146.000    116.000    220.000    122.000    170.000    218.000  44722.000     0.0000     0.0000    -0.0310     0.0000    -0.8000     0.0000   -80.0000    -0.0016     0.0005     0.0403    -0.8000    13.0000     5.5000     5.5000    15.0000    -1.0055     1.5000    75.0000     1.0000    73.429
     63    35.1000     45.000  15258.000  53111.000    105.000     83.000    212.000    152.000     97.000    140.000     72.000    144.000    115.000     88.000   1138.000   1383.000    118.000     95.000    137.000    175.000    331.000     79.000    129.000    117.000    107.000     84.000    107.000    149.000    131.000    142.000    150.000    139.000    226.000    152.000     97.000    115.000    115.000    109.000    228.000    427.000    139.000    150.000    100.000    194.000    103.000    160.000    174.000  44703.000     0.0000     0.0000    -0.0310     0.0000    -0.8000     0.0000   -80.0000    -0.0016     0.0005     0.0403    -0.8000    13.0000     5.5000     5.5000    15.0000    -1.0055     1.5000    75.0000     1.0000    73.205
     64    35.1500     45.000  15468.000  53101.000     96.000    103.000    241.000    163.000    112.000     97.000     68.000    172.000    134.000     86.000   1068.000   1252.000    128.000     58.000    160.000    195.000    332.000     80.000    131.000    123.000    106.000     90.000     98.000    151.000    138.000    133.000    154.000    146.000    197.000    154.000     99.000    104.000    132.000    107.000    233.000    443.000    131.000    168.000    114.000    199.000    114.000    159.000    210.000  44722.000     0.0000     0.0000    -0.0310     0.0000    -0.8000     0.0000   -80.0000    -0.0016     0.0005     0.0403    -0.8000    13.0000     5.5000     5.5000    15.0000    -1.0055     1.5000    75.0000     1.0000    73.306
     65    35.2000     45.000  15385.000  52678.000    113.000    102.000    237.000    243.000    115.000     97.000     75.000    144.000    151.000    102.000    862.000   1048.000    136.000     60.000    158.000    195.000    278.000     87.000    164.000     99.000    109.000    103.000     93.000    153.000    110.000    134.000    179.000    136.000    173.000    149.000    119.000    117.000    115.000    135.000    246.000    389.000    145.000    147.000    128.000    165.000    131.000    143.000    191.000  44702.000     0.0000     0.0000    -0.0310     0.0000    -0.8000     0.0000   -80.0000    -0.0016     0.0005     0.0403    -0.8000    13.0000     5.5000     5.5000    15.0000    -1.0055     1.5000    75.0000     1.0000    73.946
     66    35.2500     45.000  15380.000  52645.000     92.000    112.000    268.000    367.000     94.000     99.000     81.000    132.000    200.000    101.000    720.000    738.000    126.000     70.000    179.000    259.000    223.000     86.000    134.000     77.000    136.000    125.000    115.000    136.000    119.000    180.000    190.000    140.000    166.000    130.000    128.000    119.000    123.000    122.000    233.000    432.000    143.000    149.000    109.000    154.000    117.000    131.000    188.000  44902.000     0.0000     0.0000    -0.0310     0.0000    -0.8000     0.0000   -80.0000    -0.0016     0.0005     0.0403    -0.8000    13.0000     5.5000     5.5000    15.0000    -1.0055     1.5000    75.0000     1.0000    74.819
     67    35.3000     45.000  15244.000  52343.000     97.000    101.000    322.000    519.000     81.000     90.000     73.000    157.000    208.000     93.000    503.000    532.000    117.000     77.000    175.000    257.000    244.000     83.000    137.000     87.000    139.000    117.000     90.000    148.000     99.000    161.000    214.000    146.000    143.000    140.000    116.000    115.000    112.000    120.000    225.000    413.000    122.000    177.000    138.000    154.000    152.000    139.000    208.000  44802.000     0.0000     0.0000    -0.0310     0.0000    -0.8000     0.0000   -80.0000    -0.0016     0.0005     0.0403    -0.8000    13.0000     5.5000     5.5000    15.0000    -1.0055     1.5000    75.0000     1.0000    75.571
     68    35.3500     45.000  15408.000  52185.000     94.000     92.000    392.000    676.000     89.000     88.000    101.000    188.000    260.000    101.000    366.000    389.000    130.000     64.000    175.000    267.000    232.000     75.000    128.000     97.000    121.000    117.000    114.000    136.000     84.000    179.000    206.000    122.000    130.000    127.000    111.000     98.000    109.000    132.000    244.000    449.000    130.000    133.000    125.000    134.000    115.000    155.000    208.000  44702.000     0.0000     0.0000    -0.0310     0.0000    -0.8000     0.0000   -80.0000    -0.0016     0.0005     0.0403    -0.8000    13.0000     5.5000     5.5000    15.0000    -1.0055     1.5000    75.0000     1.0000    76.167
     69    35.4000     45.000  15323.000  52175.000     83.000     81.000    384.000    765.000    102.000     76.000     86.000    160.000    287.000     84.000    268.000    257.000    127.000     62.000    167.000    246.000    215.000     94.000    105.000     90.000    138.000     99.000     95.000    105.000     98.000    191.000    224.000    123.000    142.000    137.000    107.000    105.000    126.000    128.000    201.000    424.000    148.000    140.000    114.000    136.000    130.000    187.000    217.000  44921.000     0.0000     0.0000    -0.0310     0.0000    -0.8000     0.0000   -80.0000    -0.0016     0.0005     0.0403    -0.8000    13.0000     5.5000     5.5000    15.0000    -1.0055     1.5000    75.0000     1.0000    76.605
     70    35.4500     45.000  15231.000  52200.000     87.000    105.000    303.000    882.000     91.000     80.000     86.000    188.000    252.000    113.000    218.000    171.000    114.000     84.000    157.000    263.000    237.000     85.000     98.000     78.000    151.000    126.000    101.000    134.000    109.000    178.000    238.000    118.000    157.000    114.000    117.000    121.000    116.000    123.000    228.000    402.000    151.000    136.000    130.000    117.000    130.000    175.000    214.000  44922.000     0.0000     0.0000    -0.0310     0.0000    -0.8000     0.0000   -80.0000    -0.0016     0.0005     0.0403    -0.8000    13.0000     5.5000     5.5000    15.0000    -1.0055     1.5000    75.0000     1.0000    77.190
     71    35.5000     45.000  15494.000  52841.000     77.000    116.000    287.000    960.000    108.000     75.000     89.000    203.000    343.000    104.000    183.000    140.000    117.000     84.000    137.000    255.000    220.000    985.000    103.000     95.000    134.000    124.000     79.000    126.000    118.000    172.000    234.000    116.000    104.000    135.000    122.000    117.000    122.000    124.000    204.000    386.000    141.000    136.000    145.000    136.000    132.000    134.000    217.000  44702.000     0.0000     0.0000    -0.0310     0.0000    -0.8000     0.0000   -80.0000    -0.0016     0.0005     0.0403    -0.8000    13.0000     5.5000     5.5000    15.0000    -1.0055     1.5000    75.0000     1.0000    77.786
     72    35.5500     45.000  15391.000  51889.000     99.000    102.000    249.000    905.000     88.000     87.000     82.000    190.000    331.000     86.000    167.000    125.000    104.000     54.000    153.000    235.000    250.000     78.000     97.000    102.000    131.000    111.000     86.000    121.000     91.000    156.000    225.000    125.000    131.000    119.000    134.000    115.000    118.000    118.000    205.000    409.000    129.000    149.000    109.000    127.000    122.000    153.000    200.000  44921.000     0.0000     0.0000    -0.0310     0.0000    -0.8000     0.0000   -80.0000    -0.0016     0.0005     0.0403    -0.8000    13.0000     5.5000     5.5000    15.0000    -1.0055     1.5000    75.0000     1.0000    78.343
     73    35.6000     45.000  15452.000  51710.000     80.000     78.000    184.000    773.000     91.000     84.000     90.000    214.000    323.000    102.000    156.000    110.000     95.000     75.000    171.000    194.000    267.000     93.000    100.000    107.000    123.000    123.000     87.000    133.000    100.000    193.000    233.000    114.000     99.000    100.000    137.000    108.000    101.000    135.000    206.000    403.000    135.000    146.000    133.000    126.000    143.000    173.000    171.000  44901.000     0.0000     0.0000    -0.0310     0.0000    -0.8000     0.0000   -80.0000    -0.0016     0.0005     0.0403    -0.8000    13.0000     5.5000     5.5000    15.0000    -1.0055     1.5000    75.0000     1.0000    78.855
     74    35.6500     45.000  15194.000  51272.000     78.000     81.000    141.000    550.000    108.000     93.000     95.000    200.000    350.000     79.000    152.000    127.000    102.000     85.000    155.000    199.000    273.000    102.000     88.000    107.000    111.000    117.000     96.000    115.000     96.000    185.000    250.000    101.000    100.000    113.000    168.000     99.000     95.000    132.000    203.000    375.000    144.000    141.000    136.000    109.000    127.000    183.000    209.000  44702.000     0.0000     0.0000    -0.0310     0.0000    -0.8000     0.0000   -80.0000    -0.0016     0.0005     0.0403    -0.8000    13.0000     5.5000     5.5000    15.0000    -1.0055     1.5000    75.0000     1.0000    79.290
     75    35.7000     45.000  15689.000  51183.000     87.000     88.000    102.000    515.000     97.000     94.000     81.000    201.000    304.000     94.000    111.000    115.000     98.000     66.000    132.000    153.000    290.000     86.000     93.000    120.000    109.000    129.000    101.000    106.000     82.000    181.000    189.000    106.000    111.000    137.000    153.000     93.000    116.000    123.000    201.000    378.000    135.000    148.000    136.000    129.000    138.000    163.000    191.000  44901.000     0.0000     0.0000    -0.0310     0.0000    -0.8000     0.0000   -80.0000    -0.0016     0.0005     0.0403    -0.8000    13.0000     5.5000     5.5000    15.0000    -1.0055     1.5000    75.0000     1.0000    79.687
     76    35.7500     45.000  15290.000  51213.000     81.000    117.000    106.000    363.000     95.000     73.000     85.000    179.000    268.000     95.000    109.000    114.000    103.000     58.000    155.000    168.000    302.000     99.000     82.000    124.000    133.000    138.000    108.000    131.000     95.000    172.000    227.000    120.000    109.000     97.000    155.000    116.000    109.000    167.000    213.000    382.000    153.000    122.000    132.000    130.000    138.000    162.000    206.000  44922.000     0.0000     0.0000    -0.0310     0.0000    -0.8000     0.0000   -80.0000    -0.0016     0.0005     0.0403    -0.8000    13.0000     5.5000     5.5000    15.0000    -1.0055     1.5000    75.0000     1.0000    80.046
     77    35.8000     45.000  15318.000  50846.000     82.000     83.000     91.000    299.000     96.000     88.000     74.000    185.000    233.000     88.000    122.000    140.000    126.000     73.000    148.000    141.000    311.000     92.000     90.000    148.000    100.000    141.000     92.000     96.000     92.000    154.000    242.000    137.000    108.000    122.000    131.000    119.000    110.000    129.000    213.000    419.000    130.000    140.000    133.000    119.000    142.000    145.000    200.000  44722.000     0.0000     0.0000    -0.0310     0.0000    -0.8000     0.0000   -80.0000    -0.0016     0.0005     0.0403    -0.8000    13.0000     5.5000     5.5000    15.0000    -1.0055     1.5000    75.0000     1.0000    80.358
     78    35.8500     45.000  15367.000  50552.000     85.000     87.000     86.000    333.000     87.000     56.000     89.000    154.000    205.000     86.000    110.000    109.000    112.000     79.000    150.000    148.000    309.000    113.000     89.000    135.000    113.000    135.000     97.000    123.000     84.000    160.000    177.000    117.000    102.000    116.000    155.000     94.000     92.000    129.000    187.000    354.000    134.000    119.000    134.000    118.000    142.000    157.000    189.000  44702.000     0.0000     0.0000    -0.0310     0.0000    -0.8000     0.0000   -80.0000    -0.0016     0.0005     0.0403    -0.8000    13.0000     5.5000     5.5000    15.0000    -1.0055     1.5000    75.0000     1.0000    80.600
     79    35.9000     45.000  15319.000  50697.000     77.000    112.000    110.000    336.000     95.000     75.000     84.000    120.000    163.000    117.000    113.000    128.000    136.000     88.000    116.000    122.000    317.000    112.000     81.000    142.000    122.000    137.000    116.000    114.000     90.000    157.000    187.000    120.000     99.000    112.000    135.000     95.000    109.000    118.000    215.000    392.000    125.000    132.000    154.000    115.000    148.000    170.000    189.000  44702.000     0.0000     0.0000    -0.0310     0.0000    -0.8000     0.0000   -80.0000    -0.0016     0.0005     0.0403    -0.8000    13.0000     5.5000     5.5000    15.0000    -1.0055     1.5000    75.0000     1.0000    80.780
     80    35.9500     45.000  15616.000  50564.000     90.000    119.000     77.000    339.000     84.000     91.000     83.000    108.000    135.000     96.000     98.000    124.000    187.000     91.000    114.000    139.000    339.000    104.000     94.000    139.000     95.000    137.000    105.000    116.000    100.000    142.000    181.000    119.000     77.000    100.000    144.000    109.000     99.000    145.000    165.000    314.000    136.000    134.000    153.000    110.000    134.000    176.000    199.000  44723.000     0.0000     0.0000    -0.0310     0.0000    -0.8000     0.0000   -80.0000    -0.0016     0.0005     0.0403    -0.8000    13.0000     5.5000     5.5000    15.0000    -1.0055     1.5000    75.0000     1.0000    80.963
     81    36.0000     45.000  15390.000  50675.000     91.000    128.000     95.000    321.000     89.000     78.000     77.000     91.000    105.000    125.000     95.000    140.000    182.000     83.000    110.000    120.000    260.000    130.000     70.000    163.000    109.000    148.000    121.000    108.000     77.000    144.000    158.000    127.000     88.000    118.000    148.000     93.000    112.000    128.000    186.000    319.000    131.000    141.000    174.000    109.000    116.000    162.000    184.000  44921.000     0.0000     0.0000    -0.0310     0.0000    -0.8000     0.0000   -80.0000    -0.0016     0.0005     0.0403    -0.8000    13.0000     5.5000     5.5000    15.0000    -1.0055     1.5000    75.0000     1.0000    81.092
     82    36.0500     45.000  15334.000  50796.000     74.000    184.000     88.000    330.000     84.000     55.000     96.000     90.000    108.000    123.000    101.000    124.000    224.000     75.000    108.000    143.000    247.000    148.000     89.000    131.000    100.000    142.000    140.000     95.000     92.000    152.000    143.000    140.000    100.000    120.000    169.000    100.000    110.000    140.000    161.000    314.000    120.000    134.000    166.000    100.000    156.000    170.000    189.000  44921.000     0.0000     0.0000    -0.0310     0.0000    -0.8000     0.0000   -80.0000    -0.0016     0.0005     0.0403    -0.8000    13.0000     5.5000     5.5000    15.0000    -1.0055     1.5000    75.0000     1.0000    81.192
     83    36.1000     45.000  15371.000  51326.000     85.000    226.000    110.000    247.000     90.000     69.000    102.000     84.000    104.000    166.000    109.000    146.000    257.000     71.000    111.000     98.000    233.000    957.000     77.000    140.000     96.000    135.000    134.000    111.000     91.000    142.000    141.000    140.000     96.000    101.000    169.000    112.000     85.000    138.000    194.000    300.000    130.000    107.000    155.000     98.000    140.000    152.000    175.000  44702.000     0.0000     0.0000    -0.0310     0.0000    -0.8000     0.0000   -80.0000    -0.0016     0.0005     0.0403    -0.8000    13.0000     5.5000     5.5000    15.0000    -1.0055     1.5000    75.0000     1.0000    81.256
     84    36.1500     45.000  15386.000  50707.000     83.000    294.000     92.000    174.000     93.000     82.000     94.000     75.000    105.000    175.000    127.000    109.000    242.000     94.000     98.000    136.000    180.000    137.000     84.000    122.000     80.000    118.000    175.000    115.000     85.000    125.000    170.000    129.000    101.000    150.000    160.000     90.000    104.000    139.000    191.000    285.000    129.000    122.000    175.000     95.000    137.000    151.000    184.000  44901.000     0.0000     0.0000    -0.0310     0.0000    -0.8000     0.0000   -80.0000    -0.0016     0.0005     0.0403    -0.8000    13.0000     5.5000     5.5000    15.0000    -1.0055     1.5000    75.0000     1.0000    81.295
     85    36.2000     45.000  15289.000  50974.000     79.000    326.000     95.000    156.000    103.000     79.000     87.000     83.000    109.000    244.000    137.000    114.000    253.000     88.000    121.000    135.000    172.000    152.000     89.000    103.000     82.000    139.000    170.000    119.000     95.000    125.000    146.000    176.000     82.000    131.000    148.000    108.000     92.000    168.000    165.000    314.000    143.000    123.000    200.000    109.000    132.000    157.000    204.000  44921.000     0.0000     0.0000    -0.0310     0.0000    -0.8000     0.0000   -80.0000    -0.0016     0.0005     0.0403    -0.8000    13.0000     5.5000     5.5000    15.0000    -1.0055     1.5000    75.0000     1.0000    81.314
     86    36.2500     45.000  15409.000  51171.000     85.000    322.000    104.000    122.000     94.000     81.000     98.000     96.000    109.000    277.000    167.000    105.000    315.000     81.000    103.000    131.000    158.000    165.000     76.000     98.000     98.000    138.000    209.000    154.000    110.000    119.000    133.000    176.000     94.000    162.000    190.000    103.000    113.000    155.000    193.000    262.000    119.000    121.000    206.000    104.000    134.000    179.000    191.000  44921.000     0.0000     0.0000    -0.0310     0.0000    -0.8000     0.0000   -80.0000    -0.0016     0.0005     0.0403    -0.8000    13.0000     5.5000     5.5000    15.0000    -1.0055     1.5000    75.0000     1.0000    81.311
     87    36.3000     45.000  15452.000  50807.000     94.000    319.000     85.000     91.000     97.000     90.000    109.000     72.000    130.000    336.000    172.000     97.000    294.000     93.000    131.000    104.000    120.000    181.000     99.000     79.000     82.000     99.000    219.000    163.000     82.000    120.000    122.000    191.000     86.000    148.000    161.000     81.000     90.000    170.000    182.000    294.000    137.000    111.000    186.000     85.000    138.000    182.000    182.000  44703.000     0.0000     0.0000    -0.0310     0.0000    -0.8000     0.0000   -80.0000    -0.0016     0.0005     0.0403    -0.8000    13.0000     5.5000     5.5000    15.0000    -1.0055     1.5000    75.0000     1.0000    81.243
     88    36.3500     45.000  15314.000  50814.000    111.000    293.000    100.000     87.000     94.000     79.000    110.000     64.000    106.000    399.000    206.000    115.000    310.000     82.000    108.000    116.000     87.000    181.000     80.000     86.000     78.000    123.000    215.000    159.000     98.000    125.000    105.000    160.000    100.000    169.000    166.000     96.000     97.000    170.000    176.000    256.000    132.000    117.000    203.000     86.000    134.000    153.000    180.000  44702.000     0.0000     0.0000    -0.0310     0.0000    -0.8000     0.0000   -80.0000    -0.0016     0.0005     0.0403    -0.8000    13.0000     5.5000     5.5000    15.0000    -1.0055     1.5000    75.0000     1.0000    81.205
     89    36.4000     45.000  15413.000  50932.000     97.000    196.000     82.000    107.000    106.000     88.000    117.000     79.000    114.000    463.000    249.000     81.000    278.000     85.000    143.000    137.000     80.000    214.000     91.000     78.000     87.000    119.000    245.000    148.000     69.000    103.000    100.000    148.000    103.000    165.000    131.000     97.000     96.000    202.000    177.000    279.000    155.000    126.000    202.000     86.000    142.000    166.000    179.000  44722.000     0.0000     0.0000    -0.0310     0.0000    -0.8000     0.0000   -80.0000    -0.0016     0.0005     0.0403    -0.8000    13.0000     5.5000     5.5000    15.0000    -1.0055     1.5000    75.0000     1.0000    81.095
     90    36.4500     45.000  15426.000  51200.000    105.000    160.000    116.000     82.000    101.000     84.000    127.000     83.000    113.000    494.000    252.000     89.000    228.000     86.000    148.000    135.000     87.000    211.000     73.000     83.000     75.000    100.000    324.000    152.000     88.000    120.000    122.000    172.000    100.000    171.000    156.000    110.000    103.000    189.000    192.000    240.000    150.000     93.000    199.000     82.000    138.000    150.000    216.000  44901.000     0.0000     0.0000    -0.0310     0.0000    -0.8000     0.0000   -80.0000    -0.0016     0.0005     0.0403    -0.8000    13.0000     5.5000     5.5000    15.0000    -1.0055     1.5000    75.0000     1.0000    80.979
     91    36.5000     45.000  15438.000  51350.000     88.000    120.000     93.000     94.000     92.000     80.000    147.000     73.000    126.000    519.000    284.000    109.000    251.000     90.000    174.000    138.000    107.000    202.000    105.000     75.000     94.000     99.000    343.000    164.000     77.000    116.000    115.000    209.000     94.000    184.000    157.000     95.000    104.000    179.000    201.000    199.000    136.000    109.000    200.000     90.000    146.000    167.000    203.000  44902.000     0.0000     0.0000    -0.0310     0.0000    -0.8000     0.0000   -80.0000    -0.0016     0.0005     0.0403    -0.8000    13.0000     5.5000     5.5000    15.0000    -1.0055     1.5000    75.0000     1.0000    80.868
     92    36.5500     45.000  15320.000  51323.000    139.000    114.000    108.000     96.000     81.000     93.000    145.000    108.000    110.000    548.000    321.000     74.000    214.000     92.000    172.000    128.000     89.000    242.000    110.000     84.000     70.000    106.000    351.000    196.000     79.000    122.000    108.000    212.000     98.000    194.000    172.000     94.000    113.000    199.000    204.000    226.000    133.000    134.000    179.000     86.000    134.000    146.000    197.000  44702.000     0.0000     0.0000    -0.0310     0.0000    -0.8000     0.0000   -80.0000    -0.0016     0.0005     0.0403    -0.8000    13.0000     5.5000     5.5000    15.0000    -1.0055     1.5000    75.0000     1.0000    80.750
     93    36.6000     45.000  15516.000  51665.000    143.000     89.000    116.000    102.000     87.000    113.000    187.000     98.000    106.000    516.000    355.000     97.000    184.000     95.000    174.000    130.000    121.000    218.000     94.000     75.000     85.000     93.000    393.000    189.000     77.000    145.000     94.000    214.000     97.000    232.000    140.000     97.000    122.000    195.000    220.000    222.000    140.000    111.000    217.000     74.000    153.000    174.000    179.000  44902.000     0.0000     0.0000    -0.0310     0.0000    -0.8000     0.0000   -80.0000    -0.0016     0.0005     0.0403    -0.8000    13.0000     5.5000     5.5000    15.0000    -1.0055     1.5000    75.0000     1.0000    80.614
     94    36.6500     45.000  15543.000  51752.000    213.000    104.000    140.000    122.000    104.000     98.000    200.000    117.000     97.000    474.000    370.000     93.000    151.000     80.000    182.000    132.000    111.000    222.000     97.000     70.000     81.000     98.000    427.000    195.000    101.000    142.000     81.000    198.000    118.000    199.000    137.000    106.000     99.000    208.000    191.000    203.000    150.000    121.000    218.000     95.000    183.000    168.000    175.000  44881.000     0.0000     0.0000    -0.0310     0.0000    -0.8000     0.0000   -80.0000    -0.0016     0.0005     0.0403    -0.8000    13.0000     5.5000     5.5000    15.0000    -1.0055     1.5000    75.0000     1.0000    80.454
     95    36.7000     45.000  15463.000  51776.000    278.000    114.000    149.000     88.000    112.000     99.000    220.000    106.000     96.000    436.000    327.000     93.000    108.000    103.000    213.000    104.000    102.000    195.000    104.000     94.000     78.000     91.000    417.000    176.000     72.000    135.000    114.000    217.000     91.000    232.000    144.000    102.000    119.000    204.000    206.000    210.000    153.000    108.000    227.000     79.000    175.000    164.000    200.000  44921.000     0.0000     0.0000    -0.0310     0.0000    -0.8000     0.0000   -80.0000    -0.0016     0.0005     0.0403    -0.8000    13.0000     5.5000     5.5000    15.0000    -1.0055     1.5000    75.0000     1.0000    80.296
     96    36.7500     45.000  15374.000  51843.000    371.000    108.000    145.000    118.000    100.000    123.000    230.000    127.000     81.000    331.000    309.000     95.000    130.000     93.000    222.000    122.000    108.000    189.000    108.000     74.000     77.000    103.000    459.000    170.000     79.000    115.000     93.000    217.000    103.000    247.000    148.000     97.000    101.000    212.000    247.000    211.000    151.000    110.000    222.000     86.000    152.000    186.000    152.000  44921.000     0.0000     0.0000    -0.0310     0.0000    -0.8000     0.0000   -80.0000    -0.0016     0.0005     0.0403    -0.8000    13.0000     5.5000     5.5000    15.0000    -1.0055     1.5000    75.0000     1.0000    80.117
     97    36.8000     45.000  15424.000  51747.000    508.000    113.000    135.000    132.000    101.000    136.000    235.000    135.000     71.000    301.000    283.000    105.000     96.000     95.000    212.000    117.000     81.000    150.000    103.000     74.000    107.000     91.000    444.000    185.000     92.000    133.000    105.000    241.000    102.000    232.000    172.000    110.000     91.000    188.000    264.000    195.000    143.000    105.000    235.000     92.000    133.000    187.000    215.000  44702.000     0.0000     0.0000    -0.0310     0.0000    -0.8000     0.0000   -80.0000    -0.0016     0.0005     0.0403    -0.8000    13.0000     5.5000     5.5000    15.0000    -1.0055     1.5000    75.0000     1.0000    79.943
     98    36.8500     45.000  15417.000  51803.000    573.000    158.000    148.000    120.000    114.000    136.000    280.000    135.000     88.000    195.000    273.000     96.000    102.000     76.000    205.000    108.000     79.000    149.000    124.000     77.000     86.000     93.000    416.000    189.000     68.000    113.000    123.000    226.000     96.000    209.000    167.000    114.000    112.000    191.000    232.000    214.000    146.000    118.000    246.000     93.000    174.000    192.000    187.000  44762.000     0.0000     0.0000    -0.0310     0.0000    -0.8000     0.0000   -80.0000    -0.0016     0.0005     0.0403    -0.8000    13.0000     5.5000     5.5000    15.0000    -1.0055     1.5000    75.0000     1.0000    79.759
     99    36.9000     45.000  15285.000  52198.000    706.000    195.000    157.000    134.000    148.000    125.000    262.000    156.000    105.000    185.000    198.000     78.000     76.000     85.000    216.000    118.000    106.000    120.000    143.000     88.000     81.000     98.000    439.000    193.000     79.000    118.000    108.000    248.000    107.000    247.000    148.000     86.000    115.000    230.000    287.000    211.000    140.000    118.000    253.000     77.000    160.000    177.000    195.000  44882.000     0.0000     0.0000    -0.0310     0.0000    -0.8000     0.0000   -80.0000    -0.0016     0.0005     0.0403    -0.8000    13.0000     5.5000     5.5000    15.0000    -1.0055     1.5000    75.0000     1.0000    79.575
    100    36.9500     45.000  15285.000  52175.000    755.000    238.000    145.000    140.000    139.000    130.000    256.000    162.000     99.000    150.000    197.000     91.000     81.000     84.000    198.000    111.000    105.000    118.000     97.000     87.000     73.000    105.000    409.000    204.000     84.000    141.000    114.000    252.000    125.000    223.000    158.000     96.000    106.000    200.000    295.000    200.000    126.000    101.000    245.000     86.000    170.000    186.000    192.000  44901.000     0.0000     0.0000    -0.0310     0.0000    -0.8000     0.0000   -80.0000    -0.0016     0.0005     0.0403    -0.8000    13.0000     5.5000     5.5000    15.0000    -1.0055     1.5000    75.0000     1.0000    79.366
    101    37.0000     45.000  15314.000  52091.000    725.000    298.000    163.000     91.000    200.000    125.000    248.000    162.000     90.000    131.000    177.000    114.000     96.000     76.000    191.000     97.000     95.000    105.000    146.000     99.000     80.000     99.000    380.000    186.000    106.000    149.000    104.000    244.000    113.000    230.000    139.000     94.000    105.000    234.000    316.000    216.000    148.000    111.000    245.000     92.000    121.000    168.000    180.000  44802.000     0.0000     0.0000    -0.0310     0.0000    -0.8000     0.0000   -80.0000    -0.0016     0.0005     0.0403    -0.8000    13.0000     5.5000     5.5000    15.0000    -1.0055     1.5000    75.0000     1.0000    79.144
    102    37.0500     45.000  15649.000  51981.000    633.000    380.000    171.000     86.000    208.000    104.000    221.000    138.000     88.000    139.000    131.000    103.000     86.000     71.000    174.000     90.000    112.000    109.000    187.000     89.000    108.000     77.000    363.000    143.000     91.000    140.000    103.000    240.000    100.000    242.000    145.000     69.000    109.000    203.000    313.000    194.000    145.000    105.000    245.000     79.000    158.000    190.000    177.000  44922.000     0.0000     0.0000    -0.0310     0.0000    -0.8000     0.0000   -80.0000    -0.0016     0.0005     0.0403    -0.8000    13.0000     5.5000     5.5000    15.0000    -1.0055     1.5000    75.0000     1.0000    78.920
    103    37.1000     45.000  15376.000  51779.000    530.000    480.000    144.000     86.000    288.000     96.000    175.000    133.000     89.000    120.000    139.000     89.000    107.000     62.000    163.000    100.000    100.000     97.000    167.000     93.000     81.000     98.000    319.000    151.000     94.000    124.000    110.000    300.000    134.000    255.000    133.000    124.000    116.000    214.000    318.000    144.000    123.000    122.000    259.000     80.000    154.000    175.000    171.000  44722.000     0.0000     0.0000    -0.0310     0.0000    -0.8000     0.0000   -80.0000    -0.0016     0.0005     0.0403    -0.8000    13.0000     5.5000     5.5000    15.0000    -1.0055     1.5000    75.0000     1.0000    78.716
    104    37.1500     45.000  15542.000  51718.000    412.000    506.000    123.000     90.000    304.000    102.000    155.000    103.000     92.000    129.000    135.000    106.000     95.000     79.000    140.000    105.000     90.000     98.000    191.000     89.000     87.000     92.000    299.000    173.000     86.000    111.000    116.000    283.000    143.000    236.000    148.000    111.000    104.000    210.000    329.000    194.000    158.000    117.000    271.000     97.000    132.000    192.000    182.000  44703.000     0.0000     0.0000    -0.0310     0.0000    -0.8000     0.0000   -80.0000    -0.0016     0.0005     0.0403    -0.8000    13.0000     5.5000     5.5000    15.0000    -1.0055     1.5000    75.0000     1.0000    78.499
    105    37.2000     45.000  15258.000  51518.000    265.000    512.000    120.000     94.000    430.000     95.000    136.000    113.000    103.000    154.000    156.000     89.000     70.000     59.000    122.000    103.000    109.000     75.000    166.000     67.000     80.000     90.000    259.000    156.000     92.000    117.000    138.000    240.000    131.000    208.000    140.000    101.000    102.000    239.000    342.000    160.000    144.000    125.000    293.000    107.000    160.000    186.000    168.000  44702.000     0.0000     0.0000    -0.0310     0.0000    -0.8000     0.0000   -80.0000    -0.0016     0.0005     0.0403    -0.8000    13.0000     5.5000     5.5000    15.0000    -1.0055     1.5000    75.0000     1.0000    78.270
    106    37.2500     45.000  15553.000  51347.000    177.000    477.000     96.000     72.000    458.000     73.000    104.000    109.000     77.000    141.000    178.000     82.000     83.000     81.000    107.000    124.000     86.000     89.000    181.000     99.000    110.000     94.000    223.000    171.000     78.000    125.000    125.000    258.000    152.000    203.000    127.000     96.000    105.000    246.000    376.000    166.000    163.000    121.000    246.000     76.000    139.000    151.000    180.000  44722.000     0.0000     0.0000    -0.0310     0.0000    -0.8000     0.0000   -80.0000    -0.0016     0.0005     0.0403    -0.8000    13.0000     5.5000     5.5000    15.0000    -1.0055     1.5000    75.0000     1.0000    78.027
    107    37.3000     45.000  15579.000  51740.000    115.000    417.000     96.000     84.000    505.000     71.000    101.000     98.000    101.000    208.000    246.000     82.000     85.000     80.000    108.000    137.000     91.000     95.000    215.000     82.000     86.000    104.000    209.000    148.000     85.000     99.000    160.000    282.000    166.000    186.000    148.000     99.000    107.000    233.000    373.000    171.000    137.000    120.000    274.000     86.000    161.000    191.000    177.000  44921.000     0.0000     0.0000    -0.0310     0.0000    -0.8000     0.0000   -80.0000    -0.0016     0.0005     0.0403    -0.8000    13.0000     5.5000     5.5000    15.0000    -1.0055     1.5000    75.0000     1.0000    77.801
    108    37.3500     45.000  15517.000  51556.000     91.000    407.000     91.000     86.000    567.000     83.000     76.000     78.000    101.000    230.000    298.000     78.000     89.000     66.000    106.000    175.000     85.000     80.000    226.000     98.000     58.000     93.000    207.000    171.000     93.000    117.000    148.000    300.000    167.000    181.000    106.000    112.000     92.000    253.000    356.000    181.000    155.000    110.000    232.000     85.000    154.000    175.000    197.000  44702.000     0.0000     0.0000    -0.0310     0.0000    -0.8000     0.0000   -80.0000    -0.0016     0.0005     0.0403    -0.8000    13.0000     5.5000     5.5000    15.0000    -1.0055     1.5000    75.0000     1.0000    77.562
    109    37.4000     45.000  15539.000  51985.000     88.000    336.000    101.000     99.000    608.000     72.000    107.000     94.000     96.000    337.000    399.000     93.000    100.000     72.000    109.000    153.000     69.000    118.000    221.000     77.000     87.000     95.000    156.000    164.000    104.000    124.000    153.000    257.000    161.000    149.000    142.000    116.000     89.000    243.000    363.000    135.000    140.000    117.000    257.000     86.000    172.000    207.000    197.000  44922.000     0.0000     0.0000    -0.0310     0.0000    -0.8000     0.0000   -80.0000    -0.0016     0.0005     0.0403    -0.8000    13.0000     5.5000     5.5000    15.0000    -1.0055     1.5000    75.0000     1.0000    77.330
    110    37.4500     45.000  15667.000  52314.000     84.000    265.000     93.000     85.000    627.000     75.000     97.000     77.000     98.000    449.000    562.000     93.000     73.000     79.000     96.000    191.000     86.000     96.000    203.000     78.000     81.000    115.000    151.000    159.000    105.000    130.000    183.000    283.000    214.000    168.000    111.000    133.000    119.000    194.000    418.000    160.000    168.000    133.000    243.000     92.000    182.000    181.000    183.000  44901.000     0.0000     0.0000    -0.0310     0.0000    -0.8000     0.0000   -80.0000    -0.0016     0.0005     0.0403    -0.8000    13.0000     5.5000     5.5000    15.0000    -1.0055     1.5000    75.0000     1.0000    77.093
    111    37.5000     45.000  15169.000  52291.000     84.000    264.000     84.000    108.000    592.000     72.000    103.000     71.000     81.000    550.000    760.000     81.000    101.000     94.000     98.000    189.000    103.000     84.000    217.000     90.000     69.000    109.000    138.000    168.000    131.000    118.000    158.000    276.000    161.000    154.000    116.000    116.000    102.000    222.000    407.000    163.000    145.000    114.000    250.000     79.000    173.000    218.000    176.000  44702.000     0.0000     0.0000    -0.0310     0.0000    -0.8000     0.0000   -80.0000    -0.0016     0.0005     0.0403    -0.8000    13.0000     5.5000     5.5000    15.0000    -1.0055     1.5000    75.0000     1.0000    76.844
    112    37.5500     45.000  15128.000  52487.000     90.000    223.000    100.000     87.000    537.000     88.000    105.000     67.000     84.000    711.000    845.000    101.000     82.000     78.000    125.000    207.000    103.000    109.000    224.000     92.000     90.000    105.000    136.000    150.000    128.000    115.000    166.000    232.000    152.000    135.000    142.000    113.000    112.000    239.000    428.000    140.000    141.000    123.000    265.000     97.000    156.000    194.000    168.000  44702.000     0.0000     0.0000    -0.0310     0.0000    -0.8000     0.0000   -80.0000    -0.0016     0.0005     0.0403    -0.8000    13.0000     5.5000     5.5000    15.0000    -1.0055     1.5000    75.0000     1.0000    76.601
    113    37.6000     45.000  15495.000  52967.000     86.000    214.000     97.000     86.000    526.000     75.000    105.000     69.000    102.000    776.000   1089.000    116.000     94.000     81.000    142.000    234.000     90.000    106.000    215.000     93.000     83.000    124.000    118.000    149.000    127.000    134.000    181.000    250.000    151.000    134.000    118.000    112.000    104.000    263.000    392.000    157.000    137.000    115.000    242.000     97.000    168.000    210.000    184.000  44821.000     0.0000     0.0000    -0.0310     0.0000    -0.8000     0.0000   -80.0000    -0.0016     0.0005     0.0403    -0.8000    13.0000     5.5000     5.5000    15.0000    -1.0055     1.5000    75.0000     1.0000    76.347
    114    37.6500     45.000  15350.000  52874.000     87.000    211.000    113.000     84.000    401.000     81.000    138.000     96.000     69.000    791.000   1241.000    107.000     83.000     90.000    126.000    259.000     88.000    124.000    157.000     83.000     87.000    129.000    118.000    143.000    136.000    113.000    172.000    247.000    154.000    133.000    116.000    109.000     96.000    244.000    400.000    161.000    165.000    128.000    225.000     85.000    160.000    225.000    197.000  44702.000     0.0000     0.0000    -0.0310     0.0000    -0.8000     0.0000   -80.0000    -0.0016     0.0005     0.0403    -0.8000    13.0000     5.5000     5.5000    15.0000    -1.0055     1.5000    75.0000     1.0000    76.112
    115    37.7000     45.000  15442.000  53185.000     76.000    177.000    113.000     95.000    268.000     75.000    117.000     62.000     77.000    982.000   1333.000     91.000     99.000    104.000    181.000    278.000    104.000    123.000    173.000     78.000     90.000    121.000    129.000    147.000    137.000    131.000    144.000    221.000    140.000    126.000    119.000    121.000    105.000    273.000    401.000    117.000    166.000    134.000    197.000     89.000    175.000    213.000    161.000  44922.000     0.0000     0.0000    -0.0310     0.0000    -0.8000     0.0000   -80.0000    -0.0016     0.0005     0.0403    -0.8000    13.0000     5.5000     5.5000    15.0000    -1.0055     1.5000    75.0000     1.0000    75.888
    116    37.7500     45.000  15317.000  53027.000     80.000    190.000     90.000     93.000    213.000     70.000    137.000     88.000    101.000    998.000   1243.000     93.000     74.000     99.000    198.000    300.000    100.000    118.000    119.000     94.000    105.000    108.000    127.000    139.000    149.000    129.000    192.000    219.000    148.000    110.000    103.000    105.000     98.000    268.000    406.000    170.000    147.000    125.000    235.000     94.000    167.000    233.000    170.000  44782.000     0.0000     0.0000    -0.0310     0.0000    -0.8000     0.0000   -80.0000    -0.0016     0.0005     0.0403    -0.8000    13.0000     5.5000     5.5000    15.0000    -1.0055     1.5000    75.0000     1.0000    75.623
    117    37.8000     45.000  15208.000  53284.000     90.000    228.000    113.000     81.000    141.000     75.000    140.000    121.000     97.000   1063.000   1188.000    119.000     99.000    125.000    187.000    274.000     95.000    133.000    140.000    113.000    101.000    104.000    139.000    145.000    159.000    127.000    158.000    237.000    139.000    128.000    121.000    141.000    102.000    264.000    411.000    153.000    154.000    115.000    225.000     90.000    158.000    191.000    178.000  44922.000     0.0000     0.0000    -0.0310     0.0000    -0.8000     0.0000   -80.0000    -0.0016     0.0005     0.0403    -0.8000    13.0000     5.5000     5.5000    15.0000    -1.0055     1.5000    75.0000     1.0000    75.393
    118    37.8500     45.000  15587.000  53245.000     83.000    268.000    156.000     92.000    122.000     78.000    160.000    111.000     83.000   1103.000    968.000    103.000     96.000    119.000    212.000    327.000     84.000    129.000    129.000     99.000    107.000    119.000    139.000    148.000    170.000    140.000    149.000    212.000    132.000    144.000     95.000    138.000    113.000    276.000    495.000    130.000    174.000    128.000    183.000     81.000    162.000    202.000    184.000  44902.000     0.0000     0.0000    -0.0310     0.0000    -0.8000     0.0000   -80.0000    -0.0016     0.0005     0.0403    -0.8000    13.0000     5.5000     5.5000    15.0000    -1.0055     1.5000    75.0000     1.0000    75.134
    119    37.9000     45.000  15492.000  52721.000     84.000    318.000    189.000     79.000    101.000     81.000    144.000    102.000     99.000   1071.000    736.000    142.000     81.000    139.000    231.000    303.000     83.000    120.000    136.000    109.000    112.000    108.000    151.000    131.000    165.000    144.000    171.000    202.000    146.000    120.000    115.000    119.000    105.000    254.000    454.000    129.000    137.000    123.000    200.000    115.000    164.000    163.000    143.000  44702.000     0.0000     0.0000    -0.0310     0.0000    -0.8000     0.0000   -80.0000    -0.0016     0.0005     0.0403    -0.8000    13.0000     5.5000     5.5000    15.0000    -1.0055     1.5000    75.0000     1.0000    74.876
    120    37.9500     45.000  15259.000  52582.000    103.000    374.000    253.000     81.000     85.000     79.000    194.000    129.000     86.000    971.000    529.000    149.000     72.000    150.000    254.000    276.000    103.000    113.000    108.000     97.000    106.000     93.000    153.000    107.000    152.000    145.000    158.000    168.000    156.000    138.000    115.000    110.000    100.000    273.000    470.000    132.000    150.000    143.000    198.000     80.000    154.000    208.000    165.000  44702.000     0.0000     0.0000    -0.0310     0.0000    -0.8000     0.0000   -80.0000    -0.0016     0.0005     0.0403    -0.8000    13.0000     5.5000     5.5000    15.0000    -1.0055     1.5000    75.0000     1.0000    74.625
    121    38.0000     45.000  15674.000  52638.000    100.000    356.000    339.000     73.000     88.000    106.000    156.000    157.000     96.000    840.000    396.000    169.000     82.000    158.000    246.000    239.000     94.000    135.000    113.000    120.000     82.000    102.000    144.000    120.000    198.000    184.000    154.000    152.000    121.000    105.000     90.000    109.000    127.000    278.000    478.000    147.000    133.000    134.000    188.000    101.000    137.000    204.000    166.000  44921.000     0.0000     0.0000    -0.0310     0.0000    -0.8000     0.0000   -80.0000    -0.0016     0.0005     0.0403    -0.8000    13.0000     5.5000     5.5000    15.0000    -1.0055     1.5000    75.0000     1.0000    74.383
# Sum of Counts = 1861039
# Center of Mass = 35.004390+/-0.036310
# Full Width Half-Maximum = 3.491223+/-0.006938
# 1:32:37 AM  8/18/2016   scan completed.
