# scan = 44
# date = 8/18/2016
# time = 9:08:57 AM
# proposal = IPTS-16819
# experiment = Investing the magnetic structure and moment of BaFe4O7 and K-doped
# experiment_number = 500
# command = scan 2theta 32 38 0.05 preset time 45
# builtin_command = scan 2theta 32 38 0.05 preset time 45
# users = Hans-Conrad Zur Loye
# local_contact = Stuart Calder
# scan_title = KBaFe4O7, Zur Loye, Ge115, op-21-12, T= 675 C
# monochromator = 
# analyzer = 
# sense = -+-
# collimation = 48-40-40-120
# samplename = BaFe4O7 and K1.15Ba0.43Fe2O7
# sampletype = powder
# samplemosaic = 30.000000
# latticeconstants = 5.000000,5.000000,5.000000,90.000000,90.000000,90.000000
# ubmatrix = 0.000000,0.000000,0.000000,0.000000,0.000000,0.000000,0.000000,0.000000,0.000000
# mode = 3
# ubconf = UB15Aug2016_102130AM.ini
# preset_type = normal 
# preset_channel = time
# preset_value = 45.000000
# def_x = 2theta
# def_y = monitor
# col_headers = 
#   Pt.     2theta       time    monitor   detector     anode1     anode2     anode3     anode4     anode5     anode6     anode7     anode8     anode9    anode10    anode11    anode12    anode13    anode14    anode15    anode16    anode17    anode18    anode19    anode20    anode21    anode22    anode23    anode24    anode25    anode26    anode27    anode28    anode29    anode30    anode31    anode32    anode33    anode34    anode35    anode36    anode37    anode38    anode39    anode40    anode41    anode42    anode43    anode44         m1       marc     mtrans   coltrans     colrot       coll   pgfilter  colltrans         s1        sgl        sgu    slit_bt    slit_lf    slit_rt    slit_tp        stl        stu furnace_setpoint furnace_ramp furnace_temp
      1    32.0000     45.000  15313.000  52380.000    136.000    325.000    122.000    125.000    153.000    128.000    157.000    103.000    152.000    307.000    145.000   1024.000    323.000    100.000    156.000    137.000    157.000    199.000    105.000    134.000    120.000    151.000    135.000    116.000    124.000    103.000    161.000    141.000    147.000    142.000    134.000    122.000    138.000    126.000    153.000    166.000    161.000    165.000    157.000     99.000    202.000    143.000    185.000  44901.000     0.0000     0.0000    -0.0310     0.0000    -0.8000     0.0000   -80.0000    -0.0016     0.0005     0.0403    -0.8000    13.0000     5.5000     5.5000    15.0000    -1.0055     1.5000   675.0000    10.0000   675.000
      2    32.0500     45.000  15189.000  52197.000    142.000    380.000    129.000    132.000    162.000     90.000    135.000    108.000    128.000    296.000    176.000    911.000    365.000     89.000    161.000    143.000    187.000    184.000    127.000    124.000    135.000    130.000    124.000    117.000    140.000     84.000    128.000    134.000    148.000    147.000    125.000    167.000    163.000    141.000    143.000    174.000    169.000    158.000    156.000    133.000    181.000    164.000    165.000  44702.000     0.0000     0.0000    -0.0310     0.0000    -0.8000     0.0000   -80.0000    -0.0016     0.0005     0.0403    -0.8000    13.0000     5.5000     5.5000    15.0000    -1.0055     1.5000   675.0000    10.0000   675.005
      3    32.1000     45.000  15413.000  52354.000    202.000    484.000    128.000    117.000    162.000    110.000    143.000    114.000    155.000    222.000    164.000    878.000    353.000    114.000    124.000    164.000    174.000    182.000    106.000    108.000    113.000    153.000     97.000    116.000    109.000     95.000    150.000    122.000    168.000    135.000    124.000    163.000    158.000    128.000    157.000    158.000    159.000    154.000    140.000    128.000    187.000    144.000    171.000  44921.000     0.0000     0.0000    -0.0310     0.0000    -0.8000     0.0000   -80.0000    -0.0016     0.0005     0.0403    -0.8000    13.0000     5.5000     5.5000    15.0000    -1.0055     1.5000   675.0000    10.0000   674.995
      4    32.1500     45.000  15436.000  52385.000    248.000    557.000    129.000    144.000    162.000     98.000    133.000    119.000    155.000    219.000    149.000    700.000    327.000    109.000    147.000    158.000    172.000    180.000    117.000    105.000    130.000    146.000    117.000    111.000    106.000    102.000    136.000    142.000    136.000    124.000    146.000    175.000    175.000    181.000    165.000    163.000    142.000    145.000    144.000    127.000    192.000    151.000    180.000  44921.000     0.0000     0.0000    -0.0310     0.0000    -0.8000     0.0000   -80.0000    -0.0016     0.0005     0.0403    -0.8000    13.0000     5.5000     5.5000    15.0000    -1.0055     1.5000   675.0000    10.0000   674.979
      5    32.2000     45.000  15541.000  51966.000    277.000    608.000    105.000    140.000    172.000    114.000    125.000     99.000    141.000    186.000    164.000    548.000    317.000    103.000    147.000    177.000    158.000    181.000    124.000    122.000    110.000    130.000    133.000    120.000    118.000     97.000    142.000    129.000    167.000    127.000    141.000    143.000    155.000    133.000    161.000    152.000    151.000    157.000    145.000    122.000    184.000    161.000    158.000  44722.000     0.0000     0.0000    -0.0310     0.0000    -0.8000     0.0000   -80.0000    -0.0016     0.0005     0.0403    -0.8000    13.0000     5.5000     5.5000    15.0000    -1.0055     1.5000   675.0000    10.0000   674.983
      6    32.2500     45.000  15268.000  51942.000    330.000    569.000    120.000    142.000    166.000    131.000    132.000    101.000    135.000    193.000    166.000    412.000    256.000    124.000    137.000    204.000    161.000    138.000    121.000    114.000    111.000    123.000    115.000    114.000    123.000    103.000    136.000    132.000    149.000    144.000    140.000    134.000    134.000    140.000    160.000    155.000    158.000    166.000    144.000    115.000    164.000    150.000    158.000  44922.000     0.0000     0.0000    -0.0310     0.0000    -0.8000     0.0000   -80.0000    -0.0016     0.0005     0.0403    -0.8000    13.0000     5.5000     5.5000    15.0000    -1.0055     1.5000   675.0000    10.0000   675.022
      7    32.3000     45.000  15482.000  51904.000    366.000    540.000    128.000    174.000    202.000    123.000    122.000    102.000    149.000    181.000    124.000    331.000    210.000    112.000    142.000    176.000    166.000    176.000    120.000    104.000    106.000    137.000    121.000    124.000    139.000    104.000    141.000    132.000    180.000    137.000    117.000    165.000    137.000    149.000    161.000    153.000    121.000    165.000    154.000    116.000    167.000    153.000    156.000  44921.000     0.0000     0.0000    -0.0310     0.0000    -0.8000     0.0000   -80.0000    -0.0016     0.0005     0.0403    -0.8000    13.0000     5.5000     5.5000    15.0000    -1.0055     1.5000   675.0000    10.0000   675.025
      8    32.3500     45.000  15210.000  51719.000    408.000    445.000    135.000    176.000    202.000    107.000    127.000    129.000    144.000    184.000    142.000    256.000    207.000    113.000    119.000    183.000    154.000    152.000    114.000    123.000     89.000    121.000    130.000    124.000    115.000    104.000    148.000    138.000    181.000    135.000    111.000    141.000    164.000    182.000    157.000    170.000    143.000    146.000    124.000    129.000    166.000    134.000    146.000  44901.000     0.0000     0.0000    -0.0310     0.0000    -0.8000     0.0000   -80.0000    -0.0016     0.0005     0.0403    -0.8000    13.0000     5.5000     5.5000    15.0000    -1.0055     1.5000   675.0000    10.0000   674.999
      9    32.4000     45.000  15521.000  51545.000    354.000    388.000    124.000    174.000    247.000    122.000    130.000    104.000    158.000    182.000    143.000    225.000    166.000    107.000    140.000    197.000    137.000    143.000    107.000    105.000     98.000    137.000    106.000    100.000    119.000    107.000    126.000    119.000    221.000    133.000    130.000    159.000    149.000    148.000    154.000    125.000    135.000    144.000    129.000    134.000    174.000    163.000    161.000  44921.000     0.0000     0.0000    -0.0310     0.0000    -0.8000     0.0000   -80.0000    -0.0016     0.0005     0.0403    -0.8000    13.0000     5.5000     5.5000    15.0000    -1.0055     1.5000   675.0000    10.0000   675.016
     10    32.4500     45.000  15373.000  51652.000    386.000    289.000    120.000    165.000    287.000    135.000    123.000    105.000    154.000    208.000    127.000    178.000    163.000    114.000    121.000    208.000    135.000    143.000     98.000    111.000    132.000    120.000    122.000    126.000    106.000     92.000    134.000    141.000    203.000    177.000    117.000    166.000    166.000    150.000    182.000    142.000    157.000    165.000    158.000    119.000    159.000    164.000    163.000  44921.000     0.0000     0.0000    -0.0310     0.0000    -0.8000     0.0000   -80.0000    -0.0016     0.0005     0.0403    -0.8000    13.0000     5.5000     5.5000    15.0000    -1.0055     1.5000   675.0000    10.0000   674.986
     11    32.5000     45.000  15439.000  51433.000    322.000    250.000    148.000    199.000    274.000    119.000    136.000     95.000    161.000    187.000    112.000    190.000    169.000    111.000    110.000    200.000    139.000    156.000    122.000    112.000    136.000    132.000    116.000    119.000    103.000    107.000    159.000    115.000    192.000    128.000    122.000    161.000    156.000    150.000    167.000    136.000    150.000    165.000    163.000    115.000    168.000    165.000    174.000  44822.000     0.0000     0.0000    -0.0310     0.0000    -0.8000     0.0000   -80.0000    -0.0016     0.0005     0.0403    -0.8000    13.0000     5.5000     5.5000    15.0000    -1.0055     1.5000   675.0000    10.0000   675.004
     12    32.5500     45.000  15470.000  51517.000    277.000    211.000    126.000    167.000    309.000    104.000    128.000     93.000    184.000    185.000    144.000    187.000    155.000     92.000    119.000    196.000    166.000    136.000    106.000     86.000    134.000    135.000    125.000    132.000    112.000    113.000    165.000    138.000    217.000    131.000    129.000    173.000    160.000    160.000    173.000    146.000    161.000    168.000    157.000    110.000    185.000    131.000    170.000  44921.000     0.0000     0.0000    -0.0310     0.0000    -0.8000     0.0000   -80.0000    -0.0016     0.0005     0.0403    -0.8000    13.0000     5.5000     5.5000    15.0000    -1.0055     1.5000   675.0000    10.0000   674.987
     13    32.6000     45.000  15611.000  51388.000    204.000    215.000    141.000    193.000    257.000    102.000    148.000    101.000    206.000    186.000    121.000    199.000    147.000    119.000    119.000    185.000    148.000    122.000    123.000    107.000    141.000    144.000    131.000    118.000    101.000    104.000    146.000    135.000    219.000    137.000    110.000    147.000    187.000    133.000    174.000    153.000    140.000    158.000    151.000    125.000    164.000    154.000    152.000  44921.000     0.0000     0.0000    -0.0310     0.0000    -0.8000     0.0000   -80.0000    -0.0016     0.0005     0.0403    -0.8000    13.0000     5.5000     5.5000    15.0000    -1.0055     1.5000   675.0000    10.0000   675.019
     14    32.6500     45.000  15422.000  51408.000    202.000    200.000    149.000    191.000    236.000    106.000    164.000    130.000    178.000    211.000    114.000    200.000    172.000    107.000    128.000    159.000    128.000    123.000    116.000     94.000    128.000    134.000    131.000    110.000    113.000     90.000    153.000    135.000    249.000    128.000    122.000    162.000    163.000    147.000    176.000    140.000    161.000    154.000    165.000    116.000    190.000    145.000    167.000  44921.000     0.0000     0.0000    -0.0310     0.0000    -0.8000     0.0000   -80.0000    -0.0016     0.0005     0.0403    -0.8000    13.0000     5.5000     5.5000    15.0000    -1.0055     1.5000   675.0000    10.0000   674.996
     15    32.7000     45.000  15366.000  51304.000    220.000    161.000    166.000    168.000    183.000    133.000    164.000     92.000    194.000    179.000    148.000    222.000    153.000    123.000    149.000    190.000    143.000    124.000    126.000    114.000    133.000    132.000    119.000    121.000    108.000    100.000    162.000    119.000    219.000    112.000    126.000    146.000    160.000    142.000    177.000    120.000    134.000    173.000    137.000    104.000    179.000    166.000    142.000  44921.000     0.0000     0.0000    -0.0310     0.0000    -0.8000     0.0000   -80.0000    -0.0016     0.0005     0.0403    -0.8000    13.0000     5.5000     5.5000    15.0000    -1.0055     1.5000   675.0000    10.0000   674.985
     16    32.7500     45.000  15196.000  51301.000    224.000    163.000    153.000    157.000    170.000    119.000    193.000    116.000    190.000    164.000    109.000    199.000    164.000    126.000    128.000    171.000    142.000    128.000    118.000    104.000    132.000    126.000    126.000    119.000    106.000    109.000    189.000    126.000    193.000    135.000    143.000    161.000    163.000    149.000    192.000    156.000    143.000    166.000    139.000    130.000    154.000    142.000    162.000  44902.000     0.0000     0.0000    -0.0310     0.0000    -0.8000     0.0000   -80.0000    -0.0016     0.0005     0.0403    -0.8000    13.0000     5.5000     5.5000    15.0000    -1.0055     1.5000   675.0000    10.0000   675.011
     17    32.8000     45.000  15270.000  51454.000    223.000    171.000    149.000    146.000    151.000    129.000    156.000    111.000    181.000    167.000    129.000    281.000    186.000    139.000    127.000    147.000    158.000    116.000    113.000    102.000    136.000    149.000    102.000    119.000    129.000    107.000    174.000    145.000    229.000    161.000    132.000    167.000    168.000    138.000    182.000    153.000    173.000    152.000    146.000    131.000    165.000    139.000    154.000  44921.000     0.0000     0.0000    -0.0310     0.0000    -0.8000     0.0000   -80.0000    -0.0016     0.0005     0.0403    -0.8000    13.0000     5.5000     5.5000    15.0000    -1.0055     1.5000   675.0000    10.0000   674.996
     18    32.8500     45.000  15534.000  51452.000    194.000    153.000    168.000    138.000    152.000    131.000    148.000     98.000    168.000    163.000    131.000    258.000    181.000    145.000    133.000    150.000    158.000    112.000    148.000     93.000    139.000    139.000    122.000    144.000    101.000    121.000    164.000    131.000    195.000    151.000    134.000    167.000    207.000    122.000    208.000    167.000    164.000    173.000    128.000    137.000    164.000    157.000    173.000  44922.000     0.0000     0.0000    -0.0310     0.0000    -0.8000     0.0000   -80.0000    -0.0016     0.0005     0.0403    -0.8000    13.0000     5.5000     5.5000    15.0000    -1.0055     1.5000   675.0000    10.0000   675.006
     19    32.9000     45.000  15369.000  51113.000    193.000    152.000    177.000    137.000    141.000    124.000    140.000    103.000    153.000    148.000    137.000    287.000    134.000    142.000    119.000    117.000    156.000    119.000    125.000    126.000    142.000    130.000    130.000    113.000    124.000    115.000    182.000    115.000    229.000    137.000    142.000    151.000    180.000    127.000    242.000    154.000    154.000    157.000    169.000    109.000    166.000    153.000    159.000  44703.000     0.0000     0.0000    -0.0310     0.0000    -0.8000     0.0000   -80.0000    -0.0016     0.0005     0.0403    -0.8000    13.0000     5.5000     5.5000    15.0000    -1.0055     1.5000   675.0000    10.0000   675.001
     20    32.9500     45.000  15364.000  51205.000    173.000    151.000    181.000    143.000    169.000    108.000    122.000     97.000    144.000    163.000    143.000    301.000    149.000    124.000    132.000    128.000    147.000    111.000    126.000    106.000    135.000    144.000    137.000    137.000    117.000    128.000    192.000    135.000    234.000    150.000    132.000    173.000    173.000    135.000    242.000    149.000    162.000    170.000    127.000    125.000    158.000    161.000    148.000  44723.000     0.0000     0.0000    -0.0310     0.0000    -0.8000     0.0000   -80.0000    -0.0016     0.0005     0.0403    -0.8000    13.0000     5.5000     5.5000    15.0000    -1.0055     1.5000   675.0000    10.0000   674.989
     21    33.0000     45.000  15375.000  51251.000    148.000    163.000    162.000    117.000    164.000     86.000    128.000    104.000    170.000    175.000    136.000    296.000    157.000    127.000    142.000    140.000    153.000    107.000    120.000     96.000    144.000    126.000    131.000    136.000    138.000    127.000    188.000    127.000    228.000    115.000    128.000    149.000    172.000    140.000    221.000    143.000    155.000    175.000    138.000    105.000    161.000    132.000    179.000  44902.000     0.0000     0.0000    -0.0310     0.0000    -0.8000     0.0000   -80.0000    -0.0016     0.0005     0.0403    -0.8000    13.0000     5.5000     5.5000    15.0000    -1.0055     1.5000   675.0000    10.0000   675.004
     22    33.0500     45.000  15240.000  51342.000    137.000    173.000    156.000    120.000    152.000     97.000     99.000    111.000    156.000    166.000    159.000    333.000    142.000    149.000    149.000    143.000    143.000    118.000    144.000    102.000    170.000    129.000    131.000    132.000    113.000     98.000    174.000    143.000    213.000    134.000    150.000    155.000    185.000    137.000    233.000    127.000    137.000    159.000    144.000    144.000    166.000    148.000    149.000  44922.000     0.0000     0.0000    -0.0310     0.0000    -0.8000     0.0000   -80.0000    -0.0016     0.0005     0.0403    -0.8000    13.0000     5.5000     5.5000    15.0000    -1.0055     1.5000   675.0000    10.0000   675.016
     23    33.1000     45.000  15464.000  51270.000    123.000    169.000    165.000    115.000    153.000     99.000    103.000    115.000    153.000    168.000    176.000    260.000    125.000    142.000    137.000    124.000    127.000    120.000    152.000     90.000    136.000    128.000    142.000    145.000    129.000    102.000    202.000    135.000    228.000    139.000    129.000    126.000    186.000    145.000    245.000    177.000    162.000    165.000    154.000    132.000    166.000    155.000    164.000  44862.000     0.0000     0.0000    -0.0310     0.0000    -0.8000     0.0000   -80.0000    -0.0016     0.0005     0.0403    -0.8000    13.0000     5.5000     5.5000    15.0000    -1.0055     1.5000   675.0000    10.0000   674.996
     24    33.1500     45.000  15226.000  51337.000    131.000    142.000    171.000    124.000    145.000     97.000    115.000    123.000    130.000    173.000    200.000    304.000    126.000    181.000    129.000    129.000    121.000    121.000    147.000    100.000    134.000    135.000    154.000    157.000    102.000    125.000    188.000    133.000    204.000    130.000    154.000    165.000    210.000    133.000    258.000    170.000    143.000    180.000    145.000    111.000    135.000    155.000    145.000  44862.000     0.0000     0.0000    -0.0310     0.0000    -0.8000     0.0000   -80.0000    -0.0016     0.0005     0.0403    -0.8000    13.0000     5.5000     5.5000    15.0000    -1.0055     1.5000   675.0000    10.0000   674.993
     25    33.2000     45.000  15487.000  51230.000    158.000    148.000    182.000    135.000    149.000    109.000    106.000    109.000    131.000    204.000    255.000    264.000    122.000    155.000    106.000    163.000    144.000    110.000    125.000     86.000    125.000    135.000    154.000    171.000    138.000     96.000    227.000    131.000    208.000    131.000    131.000    154.000    165.000    114.000    272.000    156.000    140.000    178.000    143.000    134.000    156.000    139.000    149.000  44722.000     0.0000     0.0000    -0.0310     0.0000    -0.8000     0.0000   -80.0000    -0.0016     0.0005     0.0403    -0.8000    13.0000     5.5000     5.5000    15.0000    -1.0055     1.5000   675.0000    10.0000   674.994
     26    33.2500     45.000  15627.000  51230.000    152.000    159.000    182.000    133.000    128.000     90.000    116.000    129.000    183.000    197.000    239.000    249.000    134.000    150.000    120.000    143.000    136.000    101.000    139.000    100.000    129.000    122.000    174.000    144.000    122.000    134.000    209.000    138.000    208.000    133.000    133.000    158.000    162.000    139.000    250.000    168.000    130.000    153.000    145.000    122.000    154.000    159.000    162.000  44702.000     0.0000     0.0000    -0.0310     0.0000    -0.8000     0.0000   -80.0000    -0.0016     0.0005     0.0403    -0.8000    13.0000     5.5000     5.5000    15.0000    -1.0055     1.5000   675.0000    10.0000   674.993
     27    33.3000     45.000  15388.000  51579.000    129.000    135.000    239.000    162.000    138.000    105.000    106.000    105.000    146.000    195.000    223.000    234.000    142.000    170.000    130.000    190.000    142.000    121.000    129.000    114.000    129.000    131.000    165.000    172.000    159.000     94.000    203.000    123.000    206.000    138.000    153.000    146.000    174.000    149.000    296.000    168.000    149.000    135.000    144.000    116.000    153.000    146.000    173.000  44902.000     0.0000     0.0000    -0.0310     0.0000    -0.8000     0.0000   -80.0000    -0.0016     0.0005     0.0403    -0.8000    13.0000     5.5000     5.5000    15.0000    -1.0055     1.5000   675.0000    10.0000   674.993
     28    33.3500     45.000  15305.000  51537.000    128.000    113.000    231.000    147.000    172.000    112.000    117.000    125.000    167.000    184.000    290.000    241.000    143.000    145.000    119.000    171.000    130.000     96.000    113.000     85.000    126.000    125.000    182.000    149.000    122.000    144.000    195.000    147.000    185.000    151.000    150.000    135.000    189.000    128.000    275.000    149.000    140.000    140.000    134.000    131.000    171.000    155.000    163.000  44922.000     0.0000     0.0000    -0.0310     0.0000    -0.8000     0.0000   -80.0000    -0.0016     0.0005     0.0403    -0.8000    13.0000     5.5000     5.5000    15.0000    -1.0055     1.5000   675.0000    10.0000   675.014
     29    33.4000     45.000  15411.000  51421.000    156.000    134.000    227.000    164.000    128.000    129.000    122.000     96.000    176.000    180.000    271.000    215.000    140.000    128.000    136.000    216.000    136.000    107.000    120.000     95.000    134.000    123.000    178.000    167.000    134.000    103.000    171.000    124.000    179.000    140.000    144.000    148.000    204.000    151.000    290.000    178.000    141.000    168.000    138.000    157.000    155.000    138.000    178.000  44702.000     0.0000     0.0000    -0.0310     0.0000    -0.8000     0.0000   -80.0000    -0.0016     0.0005     0.0403    -0.8000    13.0000     5.5000     5.5000    15.0000    -1.0055     1.5000   675.0000    10.0000   674.990
     30    33.4500     45.000  15493.000  51455.000    120.000    150.000    270.000    147.000    132.000    105.000    111.000    108.000    174.000    168.000    239.000    202.000    150.000    149.000    127.000    223.000    126.000    123.000    115.000    106.000    124.000    100.000    177.000    125.000    115.000    112.000    183.000    133.000    174.000    143.000    137.000    140.000    192.000    142.000    279.000    151.000    143.000    161.000    134.000    161.000    173.000    152.000    158.000  44901.000     0.0000     0.0000    -0.0310     0.0000    -0.8000     0.0000   -80.0000    -0.0016     0.0005     0.0403    -0.8000    13.0000     5.5000     5.5000    15.0000    -1.0055     1.5000   675.0000    10.0000   674.997
     31    33.5000     45.000  15272.000  51294.000    140.000     92.000    241.000    163.000    127.000     93.000    101.000    135.000    165.000    145.000    216.000    177.000    130.000    158.000    114.000    242.000    141.000    104.000    107.000    102.000    137.000    143.000    207.000    156.000    119.000    122.000    186.000    120.000    172.000    138.000    144.000    148.000    193.000    128.000    275.000    180.000    154.000    158.000    148.000    161.000    164.000    170.000    156.000  44722.000     0.0000     0.0000    -0.0310     0.0000    -0.8000     0.0000   -80.0000    -0.0016     0.0005     0.0403    -0.8000    13.0000     5.5000     5.5000    15.0000    -1.0055     1.5000   675.0000    10.0000   675.014
     32    33.5500     45.000  15413.000  51122.000    125.000    112.000    198.000    172.000    132.000     92.000    108.000    125.000    171.000    143.000    179.000    177.000    132.000    135.000    117.000    222.000    144.000    119.000    104.000    120.000    135.000    116.000    224.000    144.000    119.000    104.000    165.000    120.000    189.000    127.000    112.000    125.000    218.000    136.000    293.000    172.000    152.000    156.000    144.000    154.000    163.000    161.000    164.000  44702.000     0.0000     0.0000    -0.0310     0.0000    -0.8000     0.0000   -80.0000    -0.0016     0.0005     0.0403    -0.8000    13.0000     5.5000     5.5000    15.0000    -1.0055     1.5000   675.0000    10.0000   675.003
     33    33.6000     45.000  15424.000  51077.000    116.000    130.000    171.000    145.000    129.000    115.000     97.000    193.000    172.000    126.000    188.000    203.000    157.000    127.000    110.000    210.000    129.000     98.000    107.000    115.000    146.000    128.000    220.000    146.000    134.000    111.000    171.000    147.000    159.000    123.000    123.000    125.000    180.000    140.000    272.000    183.000    152.000    133.000    138.000    155.000    130.000    139.000    182.000  44702.000     0.0000     0.0000    -0.0310     0.0000    -0.8000     0.0000   -80.0000    -0.0016     0.0005     0.0403    -0.8000    13.0000     5.5000     5.5000    15.0000    -1.0055     1.5000   675.0000    10.0000   675.013
     34    33.6500     45.000  15428.000  51131.000    121.000    145.000    144.000    167.000    108.000    114.000    120.000    140.000    198.000    146.000    171.000    182.000    170.000    125.000    130.000    183.000    124.000    113.000    107.000    105.000    126.000    150.000    204.000    136.000    121.000    112.000    184.000    126.000    180.000    134.000    149.000    134.000    185.000    124.000    266.000    175.000    167.000    126.000    147.000    159.000    183.000    166.000    162.000  44702.000     0.0000     0.0000    -0.0310     0.0000    -0.8000     0.0000   -80.0000    -0.0016     0.0005     0.0403    -0.8000    13.0000     5.5000     5.5000    15.0000    -1.0055     1.5000   675.0000    10.0000   674.989
     35    33.7000     45.000  15205.000  51334.000    110.000    168.000    159.000    175.000    118.000     85.000    142.000    142.000    237.000    146.000    146.000    173.000    143.000    117.000    136.000    188.000    124.000    113.000    122.000    110.000    162.000    103.000    175.000    128.000    129.000    103.000    158.000    128.000    170.000    143.000    139.000    145.000    162.000    142.000    298.000    175.000    151.000    170.000    151.000    138.000    158.000    168.000    163.000  44921.000     0.0000     0.0000    -0.0310     0.0000    -0.8000     0.0000   -80.0000    -0.0016     0.0005     0.0403    -0.8000    13.0000     5.5000     5.5000    15.0000    -1.0055     1.5000   675.0000    10.0000   674.986
     36    33.7500     45.000  15366.000  51416.000    109.000    161.000    167.000    153.000    140.000    104.000    115.000    178.000    273.000    154.000    142.000    147.000    166.000    129.000    109.000    191.000    147.000    118.000    121.000    124.000    144.000    109.000    206.000    139.000    150.000     98.000    167.000    127.000    133.000    143.000    119.000    129.000    193.000    151.000    318.000    166.000    158.000    156.000    143.000    141.000    158.000    143.000    155.000  44922.000     0.0000     0.0000    -0.0310     0.0000    -0.8000     0.0000   -80.0000    -0.0016     0.0005     0.0403    -0.8000    13.0000     5.5000     5.5000    15.0000    -1.0055     1.5000   675.0000    10.0000   674.995
     37    33.8000     45.000  15426.000  51391.000    136.000    157.000    168.000    152.000    162.000    105.000    124.000    195.000    276.000    160.000    123.000    138.000    158.000    100.000    127.000    156.000    150.000    114.000    122.000    152.000    152.000    109.000    209.000    122.000    114.000    112.000    160.000    129.000    148.000    130.000    137.000    129.000    182.000    136.000    269.000    168.000    164.000    161.000    152.000    163.000    160.000    124.000    165.000  44921.000     0.0000     0.0000    -0.0310     0.0000    -0.8000     0.0000   -80.0000    -0.0016     0.0005     0.0403    -0.8000    13.0000     5.5000     5.5000    15.0000    -1.0055     1.5000   675.0000    10.0000   674.989
     38    33.8500     45.000  15628.000  51325.000    151.000    159.000    154.000    201.000    163.000    109.000    108.000    173.000    295.000    169.000    141.000    163.000    173.000    106.000    125.000    172.000    113.000     99.000    129.000    125.000    162.000    116.000    203.000    141.000    128.000    105.000    160.000    113.000    176.000    147.000    125.000    133.000    181.000    146.000    243.000    205.000    151.000    154.000    131.000    161.000    163.000    171.000    160.000  44722.000     0.0000     0.0000    -0.0310     0.0000    -0.8000     0.0000   -80.0000    -0.0016     0.0005     0.0403    -0.8000    13.0000     5.5000     5.5000    15.0000    -1.0055     1.5000   675.0000    10.0000   675.007
     39    33.9000     45.000  15346.000  51276.000    125.000    216.000    178.000    218.000    125.000    112.000    117.000    199.000    319.000    183.000    138.000    134.000    149.000    111.000    125.000    133.000    121.000    117.000    116.000    141.000    155.000     90.000    168.000    138.000    139.000    107.000    157.000    121.000    158.000    133.000    138.000    152.000    158.000    150.000    307.000    183.000    158.000    137.000    124.000    129.000    153.000    150.000    172.000  44722.000     0.0000     0.0000    -0.0310     0.0000    -0.8000     0.0000   -80.0000    -0.0016     0.0005     0.0403    -0.8000    13.0000     5.5000     5.5000    15.0000    -1.0055     1.5000   675.0000    10.0000   674.981
     40    33.9500     45.000  15511.000  51380.000    128.000    264.000    160.000    207.000    134.000    106.000    123.000    168.000    295.000    191.000    164.000    128.000    124.000    107.000    152.000    145.000    138.000    114.000    134.000    138.000    163.000    136.000    178.000    135.000    137.000    100.000    163.000    144.000    152.000    138.000    125.000    133.000    148.000    139.000    301.000    180.000    139.000    162.000    132.000    154.000    169.000    146.000    164.000  44722.000     0.0000     0.0000    -0.0310     0.0000    -0.8000     0.0000   -80.0000    -0.0016     0.0005     0.0403    -0.8000    13.0000     5.5000     5.5000    15.0000    -1.0055     1.5000   675.0000    10.0000   675.003
     41    34.0000     45.000  15272.000  51375.000    144.000    272.000    157.000    255.000    115.000    116.000    121.000    146.000    330.000    243.000    166.000    126.000    137.000    109.000    124.000    151.000    125.000    111.000    128.000    152.000    176.000    139.000    173.000    123.000    120.000    106.000    158.000    104.000    156.000    159.000    132.000    125.000    180.000    152.000    246.000    162.000    144.000    147.000    128.000    128.000    159.000    151.000    176.000  44703.000     0.0000     0.0000    -0.0310     0.0000    -0.8000     0.0000   -80.0000    -0.0016     0.0005     0.0403    -0.8000    13.0000     5.5000     5.5000    15.0000    -1.0055     1.5000   675.0000    10.0000   674.997
     42    34.0500     45.000  15281.000  52502.000    185.000    262.000    150.000    300.000    108.000    124.000    122.000    157.000    274.000    244.000    152.000    129.000    138.000    132.000    129.000    154.000    151.000    895.000    126.000    114.000    206.000    121.000    133.000    115.000    136.000    126.000    163.000    113.000    153.000    149.000    140.000    122.000    189.000    146.000    265.000    161.000    146.000    144.000    149.000    150.000    151.000    179.000    177.000  44922.000     0.0000     0.0000    -0.0310     0.0000    -0.8000     0.0000   -80.0000    -0.0016     0.0005     0.0403    -0.8000    13.0000     5.5000     5.5000    15.0000    -1.0055     1.5000   675.0000    10.0000   675.002
     43    34.1000     45.000  15632.000  52807.000    184.000    231.000    115.000    299.000    122.000    126.000    122.000    141.000    270.000    227.000    164.000    132.000    149.000     92.000    125.000    182.000    185.000   1212.000    121.000    163.000    229.000    130.000    152.000    109.000    130.000     96.000    134.000    144.000    130.000    143.000    122.000    160.000    164.000    129.000    253.000    181.000    139.000    170.000    164.000    154.000    159.000    162.000    170.000  44921.000     0.0000     0.0000    -0.0310     0.0000    -0.8000     0.0000   -80.0000    -0.0016     0.0005     0.0403    -0.8000    13.0000     5.5000     5.5000    15.0000    -1.0055     1.5000   675.0000    10.0000   674.998
     44    34.1500     45.000  15368.000  52787.000    204.000    217.000    146.000    364.000    114.000    110.000    119.000    131.000    263.000    212.000    194.000    143.000    147.000    104.000    134.000    155.000    154.000   1219.000    113.000    164.000    208.000    132.000    138.000    132.000    109.000    115.000    156.000    137.000    143.000    150.000    122.000    164.000    172.000    157.000    235.000    176.000    164.000    142.000    144.000    144.000    143.000    141.000    154.000  44902.000     0.0000     0.0000    -0.0310     0.0000    -0.8000     0.0000   -80.0000    -0.0016     0.0005     0.0403    -0.8000    13.0000     5.5000     5.5000    15.0000    -1.0055     1.5000   675.0000    10.0000   675.000
     45    34.2000     45.000  15385.000  52597.000    240.000    199.000    130.000    363.000    104.000    144.000    121.000    128.000    248.000    250.000    203.000    136.000    150.000    112.000    127.000    173.000    166.000   1119.000    110.000    133.000    248.000    139.000    152.000    134.000    127.000    104.000    155.000    153.000    145.000    151.000    126.000    145.000    159.000    124.000    238.000    190.000    124.000    142.000    150.000    165.000    149.000    135.000    184.000  44702.000     0.0000     0.0000    -0.0310     0.0000    -0.8000     0.0000   -80.0000    -0.0016     0.0005     0.0403    -0.8000    13.0000     5.5000     5.5000    15.0000    -1.0055     1.5000   675.0000    10.0000   675.011
     46    34.2500     45.000  15426.000  52629.000    282.000    142.000    138.000    485.000    109.000    146.000    111.000    117.000    243.000    211.000    256.000    143.000    150.000    116.000    124.000    166.000    177.000    852.000    120.000    128.000    218.000    136.000    144.000    140.000    122.000    119.000    140.000    125.000    149.000    150.000    129.000    127.000    145.000    156.000    220.000    171.000    170.000    157.000    114.000    169.000    150.000    149.000    191.000  44922.000     0.0000     0.0000    -0.0310     0.0000    -0.8000     0.0000   -80.0000    -0.0016     0.0005     0.0403    -0.8000    13.0000     5.5000     5.5000    15.0000    -1.0055     1.5000   675.0000    10.0000   674.992
     47    34.3000     45.000  15301.000  52484.000    271.000    139.000    140.000    459.000    133.000    161.000    124.000    133.000    271.000    202.000    356.000    154.000    158.000    128.000    145.000    154.000    156.000    743.000    128.000    117.000    223.000    135.000    138.000    127.000    127.000    117.000    149.000    147.000    150.000    137.000    127.000    168.000    166.000    158.000    219.000    189.000    136.000    163.000    131.000    129.000    154.000    145.000    175.000  44702.000     0.0000     0.0000    -0.0310     0.0000    -0.8000     0.0000   -80.0000    -0.0016     0.0005     0.0403    -0.8000    13.0000     5.5000     5.5000    15.0000    -1.0055     1.5000   675.0000    10.0000   674.999
     48    34.3500     45.000  15437.000  52090.000    222.000    119.000    141.000    486.000    100.000    187.000     93.000    141.000    320.000    182.000    499.000    191.000    136.000    102.000    120.000    155.000    175.000    364.000    112.000    143.000    242.000    129.000    131.000    133.000    132.000    135.000    152.000    130.000    121.000    142.000    114.000    137.000    139.000    170.000    188.000    173.000    144.000    129.000    150.000    134.000    151.000    148.000    176.000  44702.000     0.0000     0.0000    -0.0310     0.0000    -0.8000     0.0000   -80.0000    -0.0016     0.0005     0.0403    -0.8000    13.0000     5.5000     5.5000    15.0000    -1.0055     1.5000   675.0000    10.0000   675.005
     49    34.4000     45.000  15311.000  52404.000    250.000    131.000    157.000    457.000    118.000    193.000    113.000    151.000    335.000    149.000    687.000    182.000    150.000    116.000    141.000    168.000    207.000    110.000    115.000    131.000    240.000    118.000    123.000    123.000    130.000    116.000    150.000    133.000    128.000    144.000    125.000    144.000    164.000    143.000    203.000    160.000    192.000    146.000    143.000    142.000    144.000    162.000    149.000  44921.000     0.0000     0.0000    -0.0310     0.0000    -0.8000     0.0000   -80.0000    -0.0016     0.0005     0.0403    -0.8000    13.0000     5.5000     5.5000    15.0000    -1.0055     1.5000   675.0000    10.0000   675.019
     50    34.4500     45.000  15333.000  52146.000    232.000    129.000    155.000    389.000    127.000    176.000    121.000    124.000    325.000    132.000    771.000    196.000    149.000    111.000    150.000    152.000    224.000     90.000    108.000    145.000    216.000    125.000    142.000    120.000    123.000    123.000    129.000    132.000    144.000    136.000    141.000    148.000    155.000    153.000    203.000    195.000    135.000    160.000    134.000    144.000    138.000    173.000    169.000  44702.000     0.0000     0.0000    -0.0310     0.0000    -0.8000     0.0000   -80.0000    -0.0016     0.0005     0.0403    -0.8000    13.0000     5.5000     5.5000    15.0000    -1.0055     1.5000   675.0000    10.0000   674.984
     51    34.5000     45.000  15498.000  52551.000    224.000    136.000    136.000    352.000    132.000    195.000    113.000    131.000    330.000    140.000    962.000    199.000    131.000    111.000    136.000    176.000    209.000    116.000    124.000    130.000    196.000    132.000    128.000    116.000    119.000    132.000    145.000    134.000    151.000    162.000    126.000    141.000    165.000    170.000    198.000    178.000    152.000    157.000    132.000    138.000    159.000    170.000    165.000  44902.000     0.0000     0.0000    -0.0310     0.0000    -0.8000     0.0000   -80.0000    -0.0016     0.0005     0.0403    -0.8000    13.0000     5.5000     5.5000    15.0000    -1.0055     1.5000   675.0000    10.0000   675.000
     52    34.5500     45.000  15490.000  52429.000    254.000    125.000    141.000    290.000    122.000    185.000    113.000    134.000    375.000    165.000    999.000    218.000    129.000    119.000    140.000    147.000    235.000    126.000    118.000    120.000    177.000    129.000    134.000    116.000    123.000    122.000    151.000    152.000    136.000    144.000    136.000    131.000    132.000    170.000    201.000    172.000    157.000    143.000    166.000    156.000    161.000    159.000    184.000  44722.000     0.0000     0.0000    -0.0310     0.0000    -0.8000     0.0000   -80.0000    -0.0016     0.0005     0.0403    -0.8000    13.0000     5.5000     5.5000    15.0000    -1.0055     1.5000   675.0000    10.0000   674.976
     53    34.6000     45.000  15447.000  52611.000    277.000    121.000    157.000    233.000    140.000    168.000    129.000    131.000    366.000    142.000    955.000    261.000    148.000    104.000    175.000    139.000    243.000    118.000    152.000    115.000    159.000    126.000    127.000    133.000    124.000    115.000    150.000    129.000    124.000    168.000    137.000    150.000    140.000    180.000    190.000    149.000    153.000    161.000    159.000    144.000    141.000    164.000    193.000  44921.000     0.0000     0.0000    -0.0310     0.0000    -0.8000     0.0000   -80.0000    -0.0016     0.0005     0.0403    -0.8000    13.0000     5.5000     5.5000    15.0000    -1.0055     1.5000   675.0000    10.0000   675.002
     54    34.6500     45.000  15509.000  52682.000    360.000    129.000    153.000    216.000    102.000    157.000    114.000    133.000    353.000    164.000    967.000    297.000    138.000    121.000    153.000    151.000    301.000    119.000    123.000    125.000    180.000    128.000    118.000    129.000    122.000    119.000    142.000    137.000    136.000    158.000    143.000    138.000    149.000    165.000    182.000    170.000    159.000    146.000    150.000    150.000    162.000    151.000    170.000  44902.000     0.0000     0.0000    -0.0310     0.0000    -0.8000     0.0000   -80.0000    -0.0016     0.0005     0.0403    -0.8000    13.0000     5.5000     5.5000    15.0000    -1.0055     1.5000   675.0000    10.0000   675.001
     55    34.7000     45.000  15464.000  52068.000    400.000    137.000    114.000    170.000    118.000    159.000    113.000    130.000    284.000    151.000    888.000    304.000    127.000    119.000    161.000    174.000    218.000    121.000    116.000    102.000    158.000    128.000    127.000    123.000    107.000    112.000    130.000    140.000    133.000    141.000    123.000    150.000    144.000    156.000    157.000    148.000    142.000    139.000    152.000    131.000    154.000    175.000    190.000  44702.000     0.0000     0.0000    -0.0310     0.0000    -0.8000     0.0000   -80.0000    -0.0016     0.0005     0.0403    -0.8000    13.0000     5.5000     5.5000    15.0000    -1.0055     1.5000   675.0000    10.0000   674.993
     56    34.7500     45.000  15451.000  52266.000    504.000    119.000    122.000    152.000    112.000    148.000    112.000    125.000    245.000    164.000    730.000    343.000    132.000    123.000    180.000    165.000    228.000    135.000    130.000    100.000    118.000    124.000    134.000    119.000    109.000    142.000    129.000    148.000    137.000    134.000    128.000    152.000    162.000    150.000    178.000    164.000    155.000    150.000    152.000    126.000    141.000    140.000    183.000  44922.000     0.0000     0.0000    -0.0310     0.0000    -0.8000     0.0000   -80.0000    -0.0016     0.0005     0.0403    -0.8000    13.0000     5.5000     5.5000    15.0000    -1.0055     1.5000   675.0000    10.0000   675.015
     57    34.8000     45.000  15342.000  52044.000    577.000    113.000    107.000    136.000    122.000    136.000    116.000    115.000    233.000    182.000    633.000    347.000    121.000    127.000    171.000    161.000    209.000    126.000    129.000     92.000    165.000    125.000    107.000    115.000    131.000    120.000    133.000    155.000    126.000    133.000    119.000    145.000    156.000    188.000    193.000    149.000    141.000    154.000    158.000    128.000    170.000    165.000    192.000  44723.000     0.0000     0.0000    -0.0310     0.0000    -0.8000     0.0000   -80.0000    -0.0016     0.0005     0.0403    -0.8000    13.0000     5.5000     5.5000    15.0000    -1.0055     1.5000   675.0000    10.0000   675.010
     58    34.8500     45.000  15264.000  51900.000    562.000    127.000    140.000    128.000    116.000    126.000    116.000    144.000    210.000    190.000    441.000    338.000    129.000    111.000    193.000    169.000    226.000    137.000    140.000     93.000    120.000    130.000    118.000    134.000    125.000    103.000    153.000    152.000    119.000    128.000    152.000    162.000    145.000    159.000    164.000    151.000    162.000    167.000    138.000    140.000    164.000    166.000    190.000  44722.000     0.0000     0.0000    -0.0310     0.0000    -0.8000     0.0000   -80.0000    -0.0016     0.0005     0.0403    -0.8000    13.0000     5.5000     5.5000    15.0000    -1.0055     1.5000   675.0000    10.0000   675.001
     59    34.9000     45.000  15357.000  52462.000    584.000    108.000    137.000    135.000    137.000    116.000    120.000    111.000    186.000    178.000    351.000    265.000    145.000    143.000    200.000    148.000    174.000    700.000    145.000    115.000    134.000    154.000    112.000    138.000    126.000    129.000    128.000    138.000    126.000    125.000    131.000    180.000    151.000    159.000    174.000    135.000    167.000    163.000    152.000    138.000    166.000    132.000    185.000  44921.000     0.0000     0.0000    -0.0310     0.0000    -0.8000     0.0000   -80.0000    -0.0016     0.0005     0.0403    -0.8000    13.0000     5.5000     5.5000    15.0000    -1.0055     1.5000   675.0000    10.0000   674.984
     60    34.9500     45.000  15248.000  51743.000    486.000    135.000    138.000    147.000    133.000    127.000    104.000    119.000    174.000    172.000    273.000    259.000    130.000    114.000    160.000    141.000    180.000    397.000    121.000    109.000    128.000    139.000    138.000    134.000    125.000    128.000    165.000    154.000    149.000    133.000    150.000    159.000    154.000    149.000    159.000    129.000    139.000    177.000    156.000    151.000    149.000    150.000    207.000  44702.000     0.0000     0.0000    -0.0310     0.0000    -0.8000     0.0000   -80.0000    -0.0016     0.0005     0.0403    -0.8000    13.0000     5.5000     5.5000    15.0000    -1.0055     1.5000   675.0000    10.0000   675.019
     61    35.0000     45.000  15334.000  51148.000    382.000    123.000    118.000    160.000    124.000    127.000     92.000    116.000    161.000    175.000    239.000    203.000    152.000    128.000    215.000    140.000    178.000    117.000     92.000    102.000    149.000    109.000    120.000    117.000    117.000     96.000    115.000    164.000    136.000    120.000    138.000    165.000    141.000    168.000    151.000    166.000    157.000    176.000    131.000    142.000    176.000    148.000    200.000  44702.000     0.0000     0.0000    -0.0310     0.0000    -0.8000     0.0000   -80.0000    -0.0016     0.0005     0.0403    -0.8000    13.0000     5.5000     5.5000    15.0000    -1.0055     1.5000   675.0000    10.0000   674.998
     62    35.0500     45.000  15407.000  51676.000    328.000    127.000    171.000    189.000    126.000    143.000    105.000    130.000    171.000    174.000    214.000    194.000    155.000    117.000    194.000    142.000    210.000    121.000    124.000    102.000    134.000    142.000    115.000    147.000    113.000    133.000    166.000    167.000    129.000    123.000    150.000    164.000    169.000    196.000    162.000    162.000    169.000    152.000    153.000    153.000    160.000    166.000    193.000  44921.000     0.0000     0.0000    -0.0310     0.0000    -0.8000     0.0000   -80.0000    -0.0016     0.0005     0.0403    -0.8000    13.0000     5.5000     5.5000    15.0000    -1.0055     1.5000   675.0000    10.0000   674.990
     63    35.1000     45.000  15508.000  51369.000    309.000    146.000    167.000    217.000    132.000    131.000    111.000    134.000    191.000    162.000    163.000    189.000    127.000    139.000    198.000    119.000    158.000     94.000    112.000     89.000    108.000    146.000    121.000    140.000    135.000    118.000    143.000    183.000    137.000    144.000    152.000    169.000    135.000    178.000    149.000    141.000    126.000    160.000    139.000    135.000    176.000    148.000    177.000  44921.000     0.0000     0.0000    -0.0310     0.0000    -0.8000     0.0000   -80.0000    -0.0016     0.0005     0.0403    -0.8000    13.0000     5.5000     5.5000    15.0000    -1.0055     1.5000   675.0000    10.0000   675.004
     64    35.1500     45.000  15276.000  51389.000    257.000    130.000    173.000    258.000    149.000    116.000    122.000    141.000    169.000    160.000    200.000    187.000    126.000    131.000    228.000    115.000    154.000    111.000    109.000    107.000    127.000    131.000    126.000    136.000    114.000    120.000    132.000    196.000    138.000    137.000    152.000    167.000    140.000    151.000    167.000    138.000    138.000    161.000    131.000    135.000    158.000    177.000    173.000  44901.000     0.0000     0.0000    -0.0310     0.0000    -0.8000     0.0000   -80.0000    -0.0016     0.0005     0.0403    -0.8000    13.0000     5.5000     5.5000    15.0000    -1.0055     1.5000   675.0000    10.0000   674.997
     65    35.2000     45.000  15591.000  51037.000    203.000    142.000    163.000    248.000    111.000    143.000    118.000    134.000    185.000    145.000    159.000    159.000    133.000    125.000    184.000    138.000    156.000    114.000    104.000     98.000    127.000    139.000    126.000    119.000    121.000    118.000    144.000    189.000    139.000    152.000    146.000    168.000    148.000    194.000    158.000    153.000    153.000    149.000    134.000    118.000    120.000    145.000    193.000  44722.000     0.0000     0.0000    -0.0310     0.0000    -0.8000     0.0000   -80.0000    -0.0016     0.0005     0.0403    -0.8000    13.0000     5.5000     5.5000    15.0000    -1.0055     1.5000   675.0000    10.0000   675.002
     66    35.2500     45.000  15210.000  51323.000    189.000    120.000    203.000    284.000    134.000    152.000    109.000    138.000    183.000    139.000    187.000    138.000    138.000    137.000    188.000    126.000    131.000    122.000     93.000     94.000    119.000    133.000    122.000    137.000    111.000    125.000    136.000    188.000    114.000    146.000    126.000    177.000    151.000    184.000    169.000    140.000    156.000    162.000    150.000    141.000    168.000    147.000    195.000  44921.000     0.0000     0.0000    -0.0310     0.0000    -0.8000     0.0000   -80.0000    -0.0016     0.0005     0.0403    -0.8000    13.0000     5.5000     5.5000    15.0000    -1.0055     1.5000   675.0000    10.0000   674.996
     67    35.3000     45.000  15223.000  51512.000    181.000    131.000    224.000    256.000    126.000    148.000    133.000    160.000    184.000    119.000    205.000    166.000    140.000    103.000    212.000    155.000    160.000    138.000    122.000    120.000    142.000    141.000    119.000    104.000    113.000    120.000    154.000    211.000    126.000    136.000    156.000    177.000    149.000    172.000    148.000    145.000    165.000    147.000    146.000    101.000    173.000    183.000    200.000  44901.000     0.0000     0.0000    -0.0310     0.0000    -0.8000     0.0000   -80.0000    -0.0016     0.0005     0.0403    -0.8000    13.0000     5.5000     5.5000    15.0000    -1.0055     1.5000   675.0000    10.0000   674.995
     68    35.3500     45.000  15430.000  51456.000    177.000    139.000    174.000    231.000    125.000    171.000    103.000    144.000    187.000    115.000    207.000    149.000    147.000    103.000    174.000    159.000    172.000    116.000    123.000    151.000    132.000    141.000    112.000    114.000    141.000    126.000    137.000    210.000    137.000    157.000    147.000    152.000    146.000    184.000    143.000    155.000    173.000    183.000    128.000    136.000    174.000    160.000    180.000  44921.000     0.0000     0.0000    -0.0310     0.0000    -0.8000     0.0000   -80.0000    -0.0016     0.0005     0.0403    -0.8000    13.0000     5.5000     5.5000    15.0000    -1.0055     1.5000   675.0000    10.0000   674.995
     69    35.4000     45.000  15338.000  51243.000    136.000    143.000    171.000    221.000    128.000    145.000    105.000    152.000    180.000    120.000    247.000    160.000    141.000     99.000    156.000    143.000    160.000    123.000    100.000    107.000    132.000    124.000    117.000    110.000    111.000    116.000    140.000    216.000    156.000    156.000    170.000    146.000    119.000    179.000    162.000    129.000    169.000    152.000    140.000    135.000    168.000    162.000    196.000  44901.000     0.0000     0.0000    -0.0310     0.0000    -0.8000     0.0000   -80.0000    -0.0016     0.0005     0.0403    -0.8000    13.0000     5.5000     5.5000    15.0000    -1.0055     1.5000   675.0000    10.0000   674.998
     70    35.4500     45.000  15382.000  51211.000    168.000    153.000    142.000    191.000    119.000    162.000    116.000    148.000    192.000    133.000    270.000    153.000    163.000    103.000    161.000    167.000    131.000    106.000     96.000    121.000    139.000    140.000    143.000    126.000    140.000    115.000    132.000    215.000    121.000    143.000    147.000    166.000    135.000    197.000    147.000    142.000    150.000    165.000    135.000    112.000    146.000    150.000    189.000  44821.000     0.0000     0.0000    -0.0310     0.0000    -0.8000     0.0000   -80.0000    -0.0016     0.0005     0.0403    -0.8000    13.0000     5.5000     5.5000    15.0000    -1.0055     1.5000   675.0000    10.0000   674.995
     71    35.5000     45.000  15356.000  52000.000    142.000    149.000    171.000    160.000    141.000    167.000    118.000    122.000    157.000    135.000    254.000    168.000    159.000    113.000    130.000    158.000    143.000    780.000    133.000    104.000    146.000    147.000    124.000    116.000    123.000    127.000    147.000    209.000    134.000    179.000    163.000    167.000    132.000    181.000    150.000    145.000    145.000    168.000    144.000    131.000    152.000    160.000    205.000  44901.000     0.0000     0.0000    -0.0310     0.0000    -0.8000     0.0000   -80.0000    -0.0016     0.0005     0.0403    -0.8000    13.0000     5.5000     5.5000    15.0000    -1.0055     1.5000   675.0000    10.0000   675.003
     72    35.5500     45.000  15267.000  51453.000    141.000    166.000    127.000    168.000    142.000    155.000    141.000    141.000    140.000    117.000    300.000    166.000    150.000    109.000    130.000    147.000    141.000    293.000    135.000    109.000    119.000    125.000    124.000    111.000    136.000    146.000    165.000    220.000    122.000    138.000    154.000    172.000    132.000    189.000    166.000    135.000    143.000    165.000    147.000    128.000    156.000    149.000    172.000  44921.000     0.0000     0.0000    -0.0310     0.0000    -0.8000     0.0000   -80.0000    -0.0016     0.0005     0.0403    -0.8000    13.0000     5.5000     5.5000    15.0000    -1.0055     1.5000   675.0000    10.0000   674.994
     73    35.6000     45.000  15347.000  51415.000    158.000    159.000    141.000    197.000    117.000    138.000    103.000    157.000    150.000    133.000    314.000    146.000    183.000    101.000    128.000    149.000    135.000    132.000    120.000    112.000    156.000    137.000    115.000    132.000    122.000    130.000    153.000    227.000    144.000    158.000    175.000    194.000    153.000    193.000    145.000    146.000    153.000    129.000    143.000    120.000    149.000    157.000    189.000  44922.000     0.0000     0.0000    -0.0310     0.0000    -0.8000     0.0000   -80.0000    -0.0016     0.0005     0.0403    -0.8000    13.0000     5.5000     5.5000    15.0000    -1.0055     1.5000   675.0000    10.0000   674.994
     74    35.6500     45.000  15408.000  51310.000    161.000    154.000    111.000    154.000    118.000    103.000    111.000    147.000    160.000    133.000    295.000    158.000    183.000    107.000    142.000    134.000    134.000    138.000    118.000    128.000    126.000    140.000    113.000    138.000    126.000    133.000    118.000    225.000    136.000    150.000    149.000    215.000    137.000    230.000    172.000    156.000    159.000    162.000    148.000    114.000    152.000    148.000    172.000  44902.000     0.0000     0.0000    -0.0310     0.0000    -0.8000     0.0000   -80.0000    -0.0016     0.0005     0.0403    -0.8000    13.0000     5.5000     5.5000    15.0000    -1.0055     1.5000   675.0000    10.0000   674.990
     75    35.7000     45.000  15366.000  51207.000    183.000    149.000    103.000    163.000    119.000    118.000    124.000    157.000    145.000    145.000    312.000    143.000    166.000    109.000    130.000    142.000    125.000    127.000    106.000    112.000    117.000    137.000    126.000    130.000    128.000    143.000    143.000    227.000    132.000    135.000    147.000    168.000    106.000    241.000    126.000    138.000    170.000    162.000    133.000    139.000    161.000    132.000    186.000  44902.000     0.0000     0.0000    -0.0310     0.0000    -0.8000     0.0000   -80.0000    -0.0016     0.0005     0.0403    -0.8000    13.0000     5.5000     5.5000    15.0000    -1.0055     1.5000   675.0000    10.0000   674.996
     76    35.7500     45.000  15206.000  51262.000    161.000    163.000     93.000    170.000    118.000    122.000    134.000    122.000    176.000    158.000    272.000    133.000    176.000    111.000    154.000    135.000    126.000    134.000    122.000    116.000    130.000    149.000    142.000    126.000    134.000    130.000     98.000    217.000    133.000    137.000    145.000    175.000    153.000    216.000    154.000    140.000    156.000    166.000    154.000    135.000    142.000    163.000    150.000  44921.000     0.0000     0.0000    -0.0310     0.0000    -0.8000     0.0000   -80.0000    -0.0016     0.0005     0.0403    -0.8000    13.0000     5.5000     5.5000    15.0000    -1.0055     1.5000   675.0000    10.0000   674.994
     77    35.8000     45.000  15496.000  51427.000    152.000    186.000    132.000    144.000    133.000    106.000    125.000    115.000    194.000    181.000    272.000    135.000    169.000    115.000    141.000    159.000     94.000    137.000    101.000    116.000    133.000    160.000    146.000    125.000    112.000    159.000    152.000    239.000    123.000    161.000    157.000    208.000    121.000    228.000    159.000    150.000    151.000    178.000    168.000    110.000    178.000    144.000    157.000  44901.000     0.0000     0.0000    -0.0310     0.0000    -0.8000     0.0000   -80.0000    -0.0016     0.0005     0.0403    -0.8000    13.0000     5.5000     5.5000    15.0000    -1.0055     1.5000   675.0000    10.0000   675.009
     78    35.8500     45.000  15488.000  51193.000    146.000    181.000    123.000    147.000    129.000    113.000    107.000    141.000    206.000    198.000    230.000    131.000    159.000    115.000    144.000    139.000    123.000    115.000    120.000    139.000    114.000    168.000    166.000    131.000    131.000    155.000    143.000    209.000    126.000    155.000    142.000    192.000    125.000    241.000    167.000    139.000    163.000    170.000    156.000    131.000    125.000    158.000    158.000  44722.000     0.0000     0.0000    -0.0310     0.0000    -0.8000     0.0000   -80.0000    -0.0016     0.0005     0.0403    -0.8000    13.0000     5.5000     5.5000    15.0000    -1.0055     1.5000   675.0000    10.0000   674.994
     79    35.9000     45.000  15265.000  51257.000    137.000    176.000    115.000    164.000    108.000    119.000    124.000    108.000    200.000    214.000    221.000    126.000    177.000    114.000    177.000    127.000    129.000    143.000    113.000    111.000    127.000    186.000    144.000    135.000    132.000    170.000    118.000    196.000    138.000    143.000    139.000    184.000    120.000    286.000    185.000    179.000    150.000    180.000    154.000    125.000    158.000    141.000    162.000  44702.000     0.0000     0.0000    -0.0310     0.0000    -0.8000     0.0000   -80.0000    -0.0016     0.0005     0.0403    -0.8000    13.0000     5.5000     5.5000    15.0000    -1.0055     1.5000   675.0000    10.0000   674.994
     80    35.9500     45.000  15362.000  51435.000    152.000    220.000    114.000    140.000    114.000    107.000    112.000    154.000    192.000    245.000    202.000    150.000    170.000    104.000    165.000    131.000    115.000    146.000    126.000    106.000    117.000    178.000    154.000    125.000    117.000    169.000    124.000    195.000    132.000    175.000    139.000    183.000    147.000    246.000    170.000    139.000    157.000    164.000    148.000    117.000    166.000    150.000    157.000  44901.000     0.0000     0.0000    -0.0310     0.0000    -0.8000     0.0000   -80.0000    -0.0016     0.0005     0.0403    -0.8000    13.0000     5.5000     5.5000    15.0000    -1.0055     1.5000   675.0000    10.0000   674.995
     81    36.0000     45.000  15483.000  51274.000    129.000    224.000    128.000    134.000    117.000     98.000    113.000    143.000    192.000    245.000    210.000    129.000    175.000    124.000    224.000    126.000    106.000    101.000    112.000    128.000    123.000    197.000    137.000    118.000    131.000    158.000    133.000    197.000    138.000    156.000    134.000    204.000    119.000    282.000    156.000    158.000    153.000    162.000    159.000    123.000    154.000    142.000    179.000  44703.000     0.0000     0.0000    -0.0310     0.0000    -0.8000     0.0000   -80.0000    -0.0016     0.0005     0.0403    -0.8000    13.0000     5.5000     5.5000    15.0000    -1.0055     1.5000   675.0000    10.0000   674.990
     82    36.0500     45.000  15127.000  51456.000    127.000    222.000    121.000    119.000     94.000    118.000    109.000    141.000    204.000    285.000    198.000    136.000    184.000    112.000    209.000    119.000    121.000    121.000    100.000    129.000    128.000    172.000    164.000    126.000    120.000    156.000    111.000    157.000    133.000    150.000    147.000    207.000    157.000    301.000    162.000    140.000    144.000    172.000    150.000    139.000    138.000    134.000    157.000  44922.000     0.0000     0.0000    -0.0310     0.0000    -0.8000     0.0000   -80.0000    -0.0016     0.0005     0.0403    -0.8000    13.0000     5.5000     5.5000    15.0000    -1.0055     1.5000   675.0000    10.0000   675.001
     83    36.1000     45.000  15404.000  51689.000    127.000    232.000    148.000    138.000    134.000    106.000    132.000    143.000    146.000    262.000    206.000    152.000    172.000    107.000    248.000    119.000    121.000    107.000    105.000    147.000    107.000    205.000    150.000    111.000    128.000    163.000    132.000    193.000    135.000    172.000    130.000    205.000    162.000    315.000    176.000    152.000    149.000    158.000    174.000    138.000    156.000    178.000    127.000  44921.000     0.0000     0.0000    -0.0310     0.0000    -0.8000     0.0000   -80.0000    -0.0016     0.0005     0.0403    -0.8000    13.0000     5.5000     5.5000    15.0000    -1.0055     1.5000   675.0000    10.0000   674.977
     84    36.1500     45.000  15238.000  51449.000    122.000    197.000    136.000    137.000    115.000    108.000    124.000    147.000    159.000    251.000    210.000    135.000    157.000    102.000    248.000    154.000    131.000    107.000    114.000    117.000    108.000    214.000    158.000    154.000    131.000    139.000    121.000    186.000    133.000    138.000    122.000    177.000    149.000    308.000    165.000    145.000    149.000    154.000    177.000    117.000    139.000    121.000    172.000  44901.000     0.0000     0.0000    -0.0310     0.0000    -0.8000     0.0000   -80.0000    -0.0016     0.0005     0.0403    -0.8000    13.0000     5.5000     5.5000    15.0000    -1.0055     1.5000   675.0000    10.0000   675.015
     85    36.2000     45.000  15314.000  51123.000    124.000    212.000    170.000    115.000    109.000     97.000    135.000    140.000    118.000    227.000    197.000    159.000    152.000    100.000    212.000    132.000    114.000    117.000    123.000    118.000    100.000    217.000    127.000    122.000    131.000    138.000    130.000    168.000    128.000    147.000    106.000    214.000    131.000    327.000    179.000    119.000    147.000    163.000    159.000    113.000    147.000    167.000    170.000  44702.000     0.0000     0.0000    -0.0310     0.0000    -0.8000     0.0000   -80.0000    -0.0016     0.0005     0.0403    -0.8000    13.0000     5.5000     5.5000    15.0000    -1.0055     1.5000   675.0000    10.0000   675.010
     86    36.2500     45.000  15318.000  51451.000    111.000    200.000    156.000    117.000    117.000    120.000    142.000    146.000    143.000    218.000    178.000    161.000    149.000    125.000    214.000    143.000    124.000    113.000    130.000    114.000    107.000    235.000    154.000    132.000    111.000    139.000    130.000    185.000    133.000    132.000    150.000    183.000    122.000    295.000    185.000    138.000    159.000    168.000    172.000    106.000    149.000    158.000    165.000  44922.000     0.0000     0.0000    -0.0310     0.0000    -0.8000     0.0000   -80.0000    -0.0016     0.0005     0.0403    -0.8000    13.0000     5.5000     5.5000    15.0000    -1.0055     1.5000   675.0000    10.0000   674.990
     87    36.3000     45.000  15249.000  51337.000    133.000    184.000    158.000    114.000    102.000    114.000    161.000    148.000    134.000    201.000    169.000    155.000    147.000    105.000    200.000    118.000     93.000    109.000    129.000    124.000    130.000    246.000    134.000    129.000    113.000    163.000    134.000    173.000    120.000    144.000    127.000    168.000    154.000    296.000    185.000    142.000    145.000    155.000    155.000    119.000    179.000    156.000    151.000  44921.000     0.0000     0.0000    -0.0310     0.0000    -0.8000     0.0000   -80.0000    -0.0016     0.0005     0.0403    -0.8000    13.0000     5.5000     5.5000    15.0000    -1.0055     1.5000   675.0000    10.0000   674.984
     88    36.3500     45.000  15234.000  51181.000    138.000    169.000    179.000    128.000    105.000    117.000    136.000    164.000    127.000    173.000    137.000    154.000    132.000     87.000    176.000    136.000    113.000    111.000    120.000    134.000    127.000    211.000    121.000    134.000     98.000    124.000    131.000    150.000    122.000    147.000    122.000    182.000    136.000    312.000    187.000    162.000    160.000    160.000    160.000    118.000    178.000    157.000    144.000  44902.000     0.0000     0.0000    -0.0310     0.0000    -0.8000     0.0000   -80.0000    -0.0016     0.0005     0.0403    -0.8000    13.0000     5.5000     5.5000    15.0000    -1.0055     1.5000   675.0000    10.0000   674.996
     89    36.4000     45.000  15575.000  51388.000    167.000    181.000    149.000    138.000    108.000    111.000    182.000    193.000    153.000    185.000    138.000    160.000    124.000    113.000    184.000    126.000    125.000    108.000    129.000    143.000    127.000    202.000    141.000    128.000    106.000    145.000    138.000    161.000    132.000    161.000    128.000    178.000    144.000    291.000    168.000    133.000    135.000    162.000    182.000    117.000    160.000    168.000    163.000  44901.000     0.0000     0.0000    -0.0310     0.0000    -0.8000     0.0000   -80.0000    -0.0016     0.0005     0.0403    -0.8000    13.0000     5.5000     5.5000    15.0000    -1.0055     1.5000   675.0000    10.0000   675.002
     90    36.4500     45.000  15460.000  51362.000    177.000    165.000    169.000    128.000    139.000    108.000    227.000    176.000    149.000    148.000    140.000    155.000    138.000    114.000    150.000    153.000    112.000    111.000    130.000    124.000    113.000    204.000    112.000    130.000     98.000    146.000    133.000    145.000    134.000    153.000    132.000    165.000    151.000    286.000    199.000    134.000    145.000    174.000    185.000    140.000    147.000    142.000    160.000  44921.000     0.0000     0.0000    -0.0310     0.0000    -0.8000     0.0000   -80.0000    -0.0016     0.0005     0.0403    -0.8000    13.0000     5.5000     5.5000    15.0000    -1.0055     1.5000   675.0000    10.0000   674.995
     91    36.5000     45.000  15313.000  51497.000    188.000    140.000    165.000    133.000    128.000    119.000    207.000    222.000    136.000    154.000    122.000    160.000    148.000     97.000    164.000    122.000    118.000    127.000    156.000    123.000    124.000    215.000    114.000    131.000    127.000    133.000    153.000    145.000    152.000    148.000    143.000    166.000    133.000    309.000    179.000    147.000    155.000    169.000    193.000    126.000    166.000    148.000    171.000  44921.000     0.0000     0.0000    -0.0310     0.0000    -0.8000     0.0000   -80.0000    -0.0016     0.0005     0.0403    -0.8000    13.0000     5.5000     5.5000    15.0000    -1.0055     1.5000   675.0000    10.0000   675.006
     92    36.5500     45.000  15405.000  51218.000    191.000    171.000    138.000    143.000    135.000    113.000    208.000    246.000    158.000    151.000    132.000    170.000    134.000    114.000    153.000    111.000    109.000     99.000    163.000    117.000    124.000    200.000    131.000    125.000    117.000    117.000    147.000    142.000    168.000    133.000    132.000    171.000    153.000    272.000    229.000    144.000    148.000    145.000    166.000    129.000    158.000    152.000    137.000  44722.000     0.0000     0.0000    -0.0310     0.0000    -0.8000     0.0000   -80.0000    -0.0016     0.0005     0.0403    -0.8000    13.0000     5.5000     5.5000    15.0000    -1.0055     1.5000   675.0000    10.0000   675.016
     93    36.6000     45.000  15308.000  51719.000    225.000    146.000    179.000    131.000    126.000    119.000    198.000    262.000    166.000    137.000    134.000    173.000    127.000    116.000    166.000    142.000    123.000    105.000    173.000    143.000    141.000    180.000    128.000    139.000    107.000    127.000    137.000    169.000    153.000    164.000    148.000    185.000    155.000    313.000    233.000    155.000    159.000    150.000    168.000    121.000    150.000    168.000    157.000  44921.000     0.0000     0.0000    -0.0310     0.0000    -0.8000     0.0000   -80.0000    -0.0016     0.0005     0.0403    -0.8000    13.0000     5.5000     5.5000    15.0000    -1.0055     1.5000   675.0000    10.0000   675.015
     94    36.6500     45.000  15274.000  51501.000    213.000    136.000    180.000    112.000    123.000    114.000    187.000    279.000    186.000    144.000    146.000    149.000    125.000    118.000    160.000    123.000    102.000    137.000    181.000    161.000    136.000    162.000     99.000    113.000    110.000    144.000    127.000    160.000    162.000    130.000    127.000    173.000    154.000    282.000    216.000    138.000    167.000    143.000    191.000    117.000    155.000    130.000    167.000  44922.000     0.0000     0.0000    -0.0310     0.0000    -0.8000     0.0000   -80.0000    -0.0016     0.0005     0.0403    -0.8000    13.0000     5.5000     5.5000    15.0000    -1.0055     1.5000   675.0000    10.0000   674.991
     95    36.7000     45.000  15418.000  51363.000    268.000    141.000    205.000    130.000    140.000    113.000    151.000    309.000    184.000    125.000    119.000    173.000    144.000    104.000    141.000    136.000    113.000    279.000    163.000    159.000    118.000    154.000    120.000    102.000    113.000    122.000    132.000    153.000    130.000    151.000    133.000    160.000    132.000    242.000    200.000    140.000    170.000    151.000    162.000    124.000    153.000    150.000    152.000  44702.000     0.0000     0.0000    -0.0310     0.0000    -0.8000     0.0000   -80.0000    -0.0016     0.0005     0.0403    -0.8000    13.0000     5.5000     5.5000    15.0000    -1.0055     1.5000   675.0000    10.0000   675.009
     96    36.7500     45.000  15429.000  51313.000    220.000    127.000    235.000    137.000    129.000    108.000    169.000    271.000    215.000    138.000    145.000    154.000    127.000    108.000    166.000    153.000    119.000    102.000    182.000    181.000    133.000    156.000    140.000    126.000    123.000    112.000    142.000    177.000    138.000    112.000    141.000    159.000    140.000    240.000    210.000    130.000    136.000    157.000    178.000    128.000    137.000    159.000    150.000  44703.000     0.0000     0.0000    -0.0310     0.0000    -0.8000     0.0000   -80.0000    -0.0016     0.0005     0.0403    -0.8000    13.0000     5.5000     5.5000    15.0000    -1.0055     1.5000   675.0000    10.0000   674.975
     97    36.8000     45.000  15224.000  51656.000    213.000    154.000    295.000    117.000    123.000     91.000    144.000    252.000    224.000    159.000    153.000    152.000    137.000    122.000    165.000    145.000    104.000    108.000    154.000    190.000    133.000    169.000    123.000    125.000    114.000    159.000    119.000    149.000    168.000    138.000    129.000    157.000    116.000    234.000    190.000    156.000    160.000    181.000    191.000    117.000    161.000    198.000    145.000  44922.000     0.0000     0.0000    -0.0310     0.0000    -0.8000     0.0000   -80.0000    -0.0016     0.0005     0.0403    -0.8000    13.0000     5.5000     5.5000    15.0000    -1.0055     1.5000   675.0000    10.0000   674.998
     98    36.8500     45.000  15568.000  51799.000    188.000    140.000    329.000    130.000    158.000    102.000    152.000    228.000    243.000    203.000    157.000    159.000    130.000    123.000    165.000    147.000    142.000    124.000    195.000    195.000    109.000    140.000    128.000    148.000    116.000    108.000    141.000    147.000    136.000    133.000    121.000    177.000    126.000    238.000    186.000    166.000    157.000    162.000    170.000    136.000    173.000    180.000    170.000  44921.000     0.0000     0.0000    -0.0310     0.0000    -0.8000     0.0000   -80.0000    -0.0016     0.0005     0.0403    -0.8000    13.0000     5.5000     5.5000    15.0000    -1.0055     1.5000   675.0000    10.0000   674.984
     99    36.9000     45.000  15342.000  52283.000    143.000    133.000    307.000    132.000    154.000    119.000    153.000    207.000    228.000    218.000    178.000    159.000    117.000    118.000    166.000    166.000    113.000    937.000    163.000    198.000    125.000    132.000    151.000    143.000    157.000    122.000    156.000    133.000    142.000    115.000    136.000    167.000    117.000    252.000    185.000    158.000    132.000    155.000    177.000    117.000    125.000    173.000    182.000  44722.000     0.0000     0.0000    -0.0310     0.0000    -0.8000     0.0000   -80.0000    -0.0016     0.0005     0.0403    -0.8000    13.0000     5.5000     5.5000    15.0000    -1.0055     1.5000   675.0000    10.0000   675.009
    100    36.9500     45.000  15455.000  52045.000    153.000    157.000    369.000    113.000    157.000     97.000    131.000    213.000    206.000    218.000    166.000    163.000    127.000    137.000    188.000    165.000    117.000    505.000    152.000    167.000    133.000    123.000    145.000    123.000    139.000    126.000    126.000    133.000    139.000    148.000    134.000    174.000    136.000    202.000    215.000    149.000    158.000    145.000    179.000    120.000    148.000    170.000    157.000  44922.000     0.0000     0.0000    -0.0310     0.0000    -0.8000     0.0000   -80.0000    -0.0016     0.0005     0.0403    -0.8000    13.0000     5.5000     5.5000    15.0000    -1.0055     1.5000   675.0000    10.0000   675.013
    101    37.0000     45.000  15137.000  51471.000    134.000    131.000    430.000    110.000    178.000    120.000    151.000    229.000    175.000    273.000    185.000    153.000    140.000    118.000    185.000    149.000    129.000    120.000    151.000    190.000    116.000    119.000    131.000    108.000    127.000    122.000    126.000    123.000    149.000    135.000    160.000    150.000    142.000    210.000    176.000    121.000    138.000    163.000    177.000    126.000    146.000    181.000    152.000  44722.000     0.0000     0.0000    -0.0310     0.0000    -0.8000     0.0000   -80.0000    -0.0016     0.0005     0.0403    -0.8000    13.0000     5.5000     5.5000    15.0000    -1.0055     1.5000   675.0000    10.0000   675.016
    102    37.0500     45.000  15522.000  51577.000    147.000    126.000    459.000    125.000    172.000    107.000    141.000    241.000    190.000    374.000    199.000    129.000    136.000    105.000    178.000    155.000    119.000    103.000    125.000    191.000    152.000    139.000    132.000    122.000    116.000    109.000    140.000    123.000    129.000    134.000    151.000    164.000    136.000    217.000    181.000    146.000    131.000    156.000    163.000    118.000    162.000    176.000    156.000  44702.000     0.0000     0.0000    -0.0310     0.0000    -0.8000     0.0000   -80.0000    -0.0016     0.0005     0.0403    -0.8000    13.0000     5.5000     5.5000    15.0000    -1.0055     1.5000   675.0000    10.0000   675.005
    103    37.1000     45.000  15687.000  52045.000    109.000    161.000    466.000    110.000    228.000    113.000    127.000    284.000    157.000    463.000    191.000    173.000    130.000    113.000    175.000    184.000    155.000    125.000    153.000    187.000    117.000    138.000    128.000    131.000    129.000    122.000    145.000    141.000    152.000    121.000    143.000    153.000    128.000    222.000    172.000    130.000    130.000    154.000    162.000    134.000    155.000    167.000    165.000  44902.000     0.0000     0.0000    -0.0310     0.0000    -0.8000     0.0000   -80.0000    -0.0016     0.0005     0.0403    -0.8000    13.0000     5.5000     5.5000    15.0000    -1.0055     1.5000   675.0000    10.0000   674.994
    104    37.1500     45.000  15280.000  52136.000    130.000    156.000    478.000    126.000    199.000    103.000    134.000    289.000    173.000    649.000    207.000    131.000    143.000    125.000    159.000    210.000    111.000    121.000    126.000    160.000    112.000    138.000    133.000    127.000    168.000    107.000    154.000    158.000    131.000    131.000    148.000    153.000    144.000    228.000    173.000    150.000    147.000    166.000    208.000    124.000    173.000    157.000    154.000  44722.000     0.0000     0.0000    -0.0310     0.0000    -0.8000     0.0000   -80.0000    -0.0016     0.0005     0.0403    -0.8000    13.0000     5.5000     5.5000    15.0000    -1.0055     1.5000   675.0000    10.0000   675.006
    105    37.2000     45.000  15277.000  52268.000    123.000    151.000    477.000    124.000    205.000    108.000    129.000    305.000    160.000    758.000    285.000    137.000    147.000    121.000    148.000    234.000    114.000    121.000    137.000    206.000    130.000    124.000    115.000    130.000    144.000    126.000    143.000    133.000    159.000    142.000    143.000    149.000    139.000    186.000    139.000    145.000    143.000    180.000    164.000    127.000    170.000    179.000    146.000  44722.000     0.0000     0.0000    -0.0310     0.0000    -0.8000     0.0000   -80.0000    -0.0016     0.0005     0.0403    -0.8000    13.0000     5.5000     5.5000    15.0000    -1.0055     1.5000   675.0000    10.0000   675.004
    106    37.2500     45.000  15407.000  52445.000    115.000    142.000    381.000    116.000    192.000    104.000    131.000    346.000    146.000    945.000    271.000    128.000    149.000    129.000    171.000    220.000    104.000    134.000    124.000    171.000    111.000    138.000    126.000    122.000    118.000     92.000    127.000    133.000    134.000    153.000    152.000    148.000    162.000    195.000    160.000    155.000    150.000    145.000    169.000    129.000    164.000    154.000    167.000  44922.000     0.0000     0.0000    -0.0310     0.0000    -0.8000     0.0000   -80.0000    -0.0016     0.0005     0.0403    -0.8000    13.0000     5.5000     5.5000    15.0000    -1.0055     1.5000   675.0000    10.0000   674.998
    107    37.3000     45.000  15519.000  52399.000    139.000    140.000    313.000    132.000    176.000    105.000    137.000    291.000    167.000   1034.000    271.000    123.000    122.000    118.000    173.000    248.000    117.000    141.000    142.000    133.000     97.000    123.000    142.000    122.000    140.000    100.000    167.000    145.000    126.000    140.000    149.000    163.000    149.000    184.000    171.000    137.000    135.000    137.000    156.000    115.000    151.000    184.000    143.000  44901.000     0.0000     0.0000    -0.0310     0.0000    -0.8000     0.0000   -80.0000    -0.0016     0.0005     0.0403    -0.8000    13.0000     5.5000     5.5000    15.0000    -1.0055     1.5000   675.0000    10.0000   674.988
    108    37.3500     45.000  15237.000  52099.000    125.000    128.000    223.000    141.000    171.000    109.000    142.000    305.000    159.000   1017.000    309.000    114.000    143.000    114.000    147.000    228.000    134.000    123.000    113.000    138.000    122.000    101.000    157.000    106.000    144.000    116.000    149.000    127.000    113.000    129.000    172.000    144.000    164.000    196.000    160.000    132.000    150.000    159.000    149.000    130.000    153.000    166.000    155.000  44722.000     0.0000     0.0000    -0.0310     0.0000    -0.8000     0.0000   -80.0000    -0.0016     0.0005     0.0403    -0.8000    13.0000     5.5000     5.5000    15.0000    -1.0055     1.5000   675.0000    10.0000   674.997
    109    37.4000     45.000  15247.000  52868.000    128.000    133.000    200.000    123.000    167.000    113.000    135.000    236.000    152.000    976.000    359.000    133.000    153.000    129.000    168.000    237.000    127.000    716.000    121.000    122.000     91.000    149.000    129.000    107.000    127.000    101.000    152.000    151.000    139.000    150.000    142.000    142.000    162.000    181.000    173.000    162.000    161.000    148.000    157.000    143.000    131.000    176.000    165.000  44901.000     0.0000     0.0000    -0.0310     0.0000    -0.8000     0.0000   -80.0000    -0.0016     0.0005     0.0403    -0.8000    13.0000     5.5000     5.5000    15.0000    -1.0055     1.5000   675.0000    10.0000   675.000
    110    37.4500     45.000  15704.000  52236.000    115.000    128.000    192.000    116.000    149.000    122.000    145.000    257.000    151.000    870.000    366.000    130.000    119.000    135.000    169.000    230.000    126.000    306.000    110.000    129.000    100.000    131.000    139.000    121.000    129.000    107.000    144.000    131.000    118.000    135.000    147.000    137.000    135.000    205.000    154.000    135.000    154.000    143.000    157.000    127.000    149.000    191.000    161.000  44921.000     0.0000     0.0000    -0.0310     0.0000    -0.8000     0.0000   -80.0000    -0.0016     0.0005     0.0403    -0.8000    13.0000     5.5000     5.5000    15.0000    -1.0055     1.5000   675.0000    10.0000   675.003
    111    37.5000     45.000  15265.000  51805.000    115.000    137.000    162.000    116.000    138.000    134.000    150.000    214.000    164.000    814.000    291.000    108.000    165.000    133.000    163.000    197.000    119.000    110.000    105.000    119.000    126.000    112.000    123.000    124.000    125.000    109.000    154.000    124.000    140.000    143.000    161.000    157.000    153.000    184.000    127.000    153.000    151.000    172.000    135.000    109.000    137.000    162.000    149.000  44921.000     0.0000     0.0000    -0.0310     0.0000    -0.8000     0.0000   -80.0000    -0.0016     0.0005     0.0403    -0.8000    13.0000     5.5000     5.5000    15.0000    -1.0055     1.5000   675.0000    10.0000   674.997
    112    37.5500     45.000  15547.000  51344.000    128.000    121.000    131.000    128.000    149.000    102.000    158.000    208.000    161.000    611.000    250.000    136.000    151.000    151.000    150.000    180.000    136.000    121.000    130.000    113.000    109.000    115.000    124.000    116.000    129.000     92.000    170.000    110.000    133.000    141.000    160.000    149.000    146.000    194.000    174.000    152.000    141.000    154.000    137.000    116.000    140.000    189.000    116.000  44722.000     0.0000     0.0000    -0.0310     0.0000    -0.8000     0.0000   -80.0000    -0.0016     0.0005     0.0403    -0.8000    13.0000     5.5000     5.5000    15.0000    -1.0055     1.5000   675.0000    10.0000   674.995
    113    37.6000     45.000  15318.000  51489.000    122.000    129.000    164.000    126.000    137.000     99.000    121.000    177.000    167.000    464.000    201.000    135.000    161.000    144.000    164.000    184.000    125.000    127.000    123.000    122.000    127.000    114.000    135.000    156.000    130.000     89.000    158.000    131.000    149.000    144.000    153.000    129.000    154.000    178.000    155.000    185.000    126.000    184.000    148.000    121.000    153.000    192.000    165.000  44921.000     0.0000     0.0000    -0.0310     0.0000    -0.8000     0.0000   -80.0000    -0.0016     0.0005     0.0403    -0.8000    13.0000     5.5000     5.5000    15.0000    -1.0055     1.5000   675.0000    10.0000   675.004
    114    37.6500     45.000  15310.000  51373.000    132.000    138.000    155.000    121.000    151.000    138.000    125.000    164.000    182.000    397.000    200.000    130.000    150.000    148.000    132.000    176.000    154.000    125.000    117.000    125.000    125.000    109.000    158.000    120.000    124.000    117.000    174.000    133.000    126.000    150.000    130.000    141.000    148.000    141.000    161.000    148.000    162.000    165.000    170.000    121.000    153.000    167.000    149.000  44921.000     0.0000     0.0000    -0.0310     0.0000    -0.8000     0.0000   -80.0000    -0.0016     0.0005     0.0403    -0.8000    13.0000     5.5000     5.5000    15.0000    -1.0055     1.5000   675.0000    10.0000   674.988
    115    37.7000     45.000  15304.000  51187.000    124.000    167.000    168.000    152.000    146.000    117.000    129.000    144.000    163.000    305.000    180.000    140.000    139.000    128.000    136.000    147.000    124.000    124.000    112.000    121.000    105.000    145.000    121.000    129.000    123.000    121.000    181.000    121.000    128.000    161.000    150.000    127.000    178.000    168.000    152.000    129.000    160.000    144.000    185.000    101.000    163.000    194.000    133.000  44902.000     0.0000     0.0000    -0.0310     0.0000    -0.8000     0.0000   -80.0000    -0.0016     0.0005     0.0403    -0.8000    13.0000     5.5000     5.5000    15.0000    -1.0055     1.5000   675.0000    10.0000   674.998
    116    37.7500     45.000  15522.000  51096.000    133.000    156.000    162.000    119.000    137.000    131.000    141.000    145.000    155.000    253.000    166.000    138.000    135.000    160.000    137.000    189.000    123.000    121.000    118.000    111.000    130.000    120.000    117.000    120.000    125.000    113.000    195.000    153.000    135.000    164.000    136.000    130.000    151.000    169.000    132.000    135.000    151.000    144.000    157.000    114.000    133.000    185.000    136.000  44921.000     0.0000     0.0000    -0.0310     0.0000    -0.8000     0.0000   -80.0000    -0.0016     0.0005     0.0403    -0.8000    13.0000     5.5000     5.5000    15.0000    -1.0055     1.5000   675.0000    10.0000   674.993
    117    37.8000     45.000  15339.000  51165.000    124.000    208.000    207.000    132.000    153.000    117.000    145.000    157.000    136.000    198.000    181.000    150.000    129.000    188.000    134.000    151.000    140.000    122.000    130.000    131.000    123.000    122.000    143.000    110.000    138.000    103.000    204.000    132.000    134.000    148.000    167.000    161.000    145.000    168.000    161.000    129.000    165.000    160.000    162.000    112.000    140.000    185.000    158.000  44762.000     0.0000     0.0000    -0.0310     0.0000    -0.8000     0.0000   -80.0000    -0.0016     0.0005     0.0403    -0.8000    13.0000     5.5000     5.5000    15.0000    -1.0055     1.5000   675.0000    10.0000   674.990
    118    37.8500     45.000  15445.000  51214.000    132.000    185.000    243.000    131.000    151.000    116.000    126.000    175.000    137.000    171.000    165.000    125.000    147.000    179.000    171.000    153.000    122.000    103.000    109.000    120.000    134.000    154.000    132.000    127.000    125.000    123.000    186.000    128.000    125.000    168.000    143.000    141.000    146.000    153.000    147.000    133.000    152.000    138.000    171.000    119.000    160.000    163.000    163.000  44922.000     0.0000     0.0000    -0.0310     0.0000    -0.8000     0.0000   -80.0000    -0.0016     0.0005     0.0403    -0.8000    13.0000     5.5000     5.5000    15.0000    -1.0055     1.5000   675.0000    10.0000   675.001
    119    37.9000     45.000  15397.000  51036.000    124.000    194.000    246.000    137.000    145.000    109.000    155.000    146.000    141.000    173.000    166.000    150.000    123.000    170.000    120.000    143.000    123.000    112.000    125.000    113.000    126.000    123.000    103.000    113.000    132.000    124.000    233.000    143.000    124.000    174.000    162.000    147.000    168.000    161.000    181.000    139.000    178.000    160.000    147.000    115.000    152.000    182.000    132.000  44702.000     0.0000     0.0000    -0.0310     0.0000    -0.8000     0.0000   -80.0000    -0.0016     0.0005     0.0403    -0.8000    13.0000     5.5000     5.5000    15.0000    -1.0055     1.5000   675.0000    10.0000   675.000
    120    37.9500     45.000  15376.000  51076.000    129.000    212.000    257.000    106.000    155.000    133.000    175.000    130.000    128.000    194.000    162.000    121.000    116.000    146.000    128.000    160.000    112.000     91.000    112.000    118.000    127.000    136.000    137.000    124.000    153.000    127.000    229.000    130.000    131.000    155.000    151.000    132.000    172.000    173.000    163.000    167.000    158.000    131.000    166.000    112.000    162.000    179.000    154.000  44722.000     0.0000     0.0000    -0.0310     0.0000    -0.8000     0.0000   -80.0000    -0.0016     0.0005     0.0403    -0.8000    13.0000     5.5000     5.5000    15.0000    -1.0055     1.5000   675.0000    10.0000   674.982
    121    38.0000     45.000  15616.000  51265.000    141.000    184.000    270.000    128.000    162.000    102.000    202.000    173.000    117.000    184.000    189.000    149.000    146.000    181.000    129.000    143.000    127.000    126.000    149.000    109.000    128.000    108.000    116.000    107.000    130.000    123.000    250.000    147.000    120.000    175.000    152.000    139.000    201.000    161.000    152.000    150.000    144.000    167.000    143.000    109.000    147.000    183.000    180.000  44722.000     0.0000     0.0000    -0.0310     0.0000    -0.8000     0.0000   -80.0000    -0.0016     0.0005     0.0403    -0.8000    13.0000     5.5000     5.5000    15.0000    -1.0055     1.5000   675.0000    10.0000   674.994
# Sum of Counts = 1861492
# Center of Mass = 34.999739+/-0.036301
# Full Width Half-Maximum = 3.493814+/-0.006941
# 10:50:37 AM  8/18/2016   scan completed.
