# scan = 43
# date = 8/18/2016
# time = 7:28:09 AM
# proposal = IPTS-16819
# experiment = Investing the magnetic structure and moment of BaFe4O7 and K-doped
# experiment_number = 500
# command = scan 2theta 8 14 0.05 preset time 45
# builtin_command = scan 2theta 8 14 0.05 preset time 45
# users = Hans-Conrad Zur Loye
# local_contact = Stuart Calder
# scan_title = KBaFe4O7, Zur Loye, Ge115, op-21-12, T= 675 C
# monochromator = 
# analyzer = 
# sense = -+-
# collimation = 48-40-40-120
# samplename = BaFe4O7 and K1.15Ba0.43Fe2O7
# sampletype = powder
# samplemosaic = 30.000000
# latticeconstants = 5.000000,5.000000,5.000000,90.000000,90.000000,90.000000
# ubmatrix = 0.000000,0.000000,0.000000,0.000000,0.000000,0.000000,0.000000,0.000000,0.000000
# mode = 3
# ubconf = UB15Aug2016_102130AM.ini
# preset_type = normal 
# preset_channel = time
# preset_value = 45.000000
# def_x = 2theta
# def_y = monitor
# col_headers = 
#   Pt.     2theta       time    monitor   detector     anode1     anode2     anode3     anode4     anode5     anode6     anode7     anode8     anode9    anode10    anode11    anode12    anode13    anode14    anode15    anode16    anode17    anode18    anode19    anode20    anode21    anode22    anode23    anode24    anode25    anode26    anode27    anode28    anode29    anode30    anode31    anode32    anode33    anode34    anode35    anode36    anode37    anode38    anode39    anode40    anode41    anode42    anode43    anode44         m1       marc     mtrans   coltrans     colrot       coll   pgfilter  colltrans         s1        sgl        sgu    slit_bt    slit_lf    slit_rt    slit_tp        stl        stu furnace_setpoint furnace_ramp furnace_temp
      1     8.0000     45.000  15341.000  51788.000    123.000    131.000    130.000    117.000    422.000    111.000     97.000    100.000    225.000    340.000    438.000    134.000    159.000    140.000    134.000    132.000    137.000    124.000    160.000    133.000    235.000    237.000    121.000    105.000    162.000    139.000    176.000    134.000    115.000    117.000    134.000    137.000    147.000    133.000    113.000    147.000    141.000    184.000    125.000    111.000    171.000    174.000    142.000  44901.000     0.0000     0.0000    -0.0310     0.0000    -0.8000     0.0000   -80.0000    -0.0016     0.0005     0.0403    -0.8000    13.0000     5.5000     5.5000    15.0000    -1.0055     1.5000   675.0000    10.0000   675.004
      2     8.0500     45.000  15503.000  51773.000    121.000    113.000    124.000    123.000    409.000    116.000     97.000    114.000    285.000    363.000    396.000    113.000    171.000    122.000    118.000    129.000    129.000    141.000    149.000    139.000    241.000    189.000    128.000    154.000    186.000    117.000    189.000    111.000    116.000    115.000    137.000    144.000    120.000    142.000    131.000    133.000    129.000    186.000    119.000    110.000    177.000    153.000    173.000  44901.000     0.0000     0.0000    -0.0310     0.0000    -0.8000     0.0000   -80.0000    -0.0016     0.0005     0.0403    -0.8000    13.0000     5.5000     5.5000    15.0000    -1.0055     1.5000   675.0000    10.0000   675.007
      3     8.1000     45.000  15257.000  51652.000    107.000    147.000    114.000    128.000    346.000    126.000    103.000    102.000    253.000    414.000    313.000    129.000    158.000    165.000    144.000    106.000    135.000    133.000    152.000    119.000    206.000    179.000    124.000    139.000    186.000    129.000    153.000    107.000    107.000    139.000    126.000    130.000    121.000    141.000    115.000    125.000    140.000    220.000    144.000    106.000    178.000    160.000    162.000  44921.000     0.0000     0.0000    -0.0310     0.0000    -0.8000     0.0000   -80.0000    -0.0016     0.0005     0.0403    -0.8000    13.0000     5.5000     5.5000    15.0000    -1.0055     1.5000   675.0000    10.0000   674.995
      4     8.1500     45.000  15158.000  51414.000    138.000    123.000    125.000    113.000    344.000    111.000    110.000    105.000    218.000    406.000    254.000    160.000    181.000    192.000    108.000    110.000    130.000    135.000    176.000    111.000    190.000    154.000    127.000    131.000    191.000     98.000    178.000    108.000    111.000    132.000    137.000    108.000    113.000    132.000    161.000    133.000    138.000    213.000    134.000    121.000    176.000    179.000    137.000  44762.000     0.0000     0.0000    -0.0310     0.0000    -0.8000     0.0000   -80.0000    -0.0016     0.0005     0.0403    -0.8000    13.0000     5.5000     5.5000    15.0000    -1.0055     1.5000   675.0000    10.0000   674.997
      5     8.2000     45.000  15207.000  51293.000    105.000    115.000    115.000    120.000    284.000    105.000    122.000    113.000    191.000    410.000    212.000    156.000    182.000    211.000    121.000    127.000    128.000    149.000    180.000    124.000    188.000    170.000    144.000    131.000    181.000    104.000    150.000    114.000    119.000    123.000    118.000    133.000    122.000    138.000    135.000    135.000    143.000    234.000    122.000    112.000    148.000    186.000    151.000  44722.000     0.0000     0.0000    -0.0310     0.0000    -0.8000     0.0000   -80.0000    -0.0016     0.0005     0.0403    -0.8000    13.0000     5.5000     5.5000    15.0000    -1.0055     1.5000   675.0000    10.0000   675.002
      6     8.2500     45.000  15481.000  51480.000    114.000    134.000    114.000    125.000    201.000    122.000     97.000    119.000    178.000    379.000    205.000    175.000    188.000    227.000    124.000    123.000    111.000    156.000    186.000    115.000    186.000    172.000    120.000    109.000    195.000    120.000    148.000    110.000    125.000    149.000    125.000    128.000    134.000    121.000    116.000    147.000    123.000    228.000    153.000    121.000    170.000    195.000    171.000  44921.000     0.0000     0.0000    -0.0310     0.0000    -0.8000     0.0000   -80.0000    -0.0016     0.0005     0.0403    -0.8000    13.0000     5.5000     5.5000    15.0000    -1.0055     1.5000   675.0000    10.0000   674.998
      7     8.3000     45.000  15303.000  51290.000    113.000    128.000    155.000    138.000    183.000    119.000    112.000    115.000    162.000    283.000    178.000    158.000    191.000    217.000    129.000    131.000    116.000    159.000    193.000    119.000    160.000    159.000    116.000    123.000    183.000    113.000    144.000     87.000    143.000    143.000    129.000    121.000    115.000    129.000    135.000    141.000    156.000    226.000    128.000    124.000    179.000    155.000    161.000  44921.000     0.0000     0.0000    -0.0310     0.0000    -0.8000     0.0000   -80.0000    -0.0016     0.0005     0.0403    -0.8000    13.0000     5.5000     5.5000    15.0000    -1.0055     1.5000   675.0000    10.0000   674.994
      8     8.3500     45.000  15488.000  51314.000    109.000    136.000    128.000    113.000    148.000    107.000    128.000    105.000    145.000    226.000    181.000    178.000    173.000    224.000    119.000    158.000    122.000    160.000    163.000    104.000    177.000    188.000    139.000    123.000    179.000    102.000    165.000    106.000    108.000    150.000    132.000    141.000    117.000    128.000    139.000    165.000    154.000    254.000    131.000    129.000    201.000    193.000    144.000  44922.000     0.0000     0.0000    -0.0310     0.0000    -0.8000     0.0000   -80.0000    -0.0016     0.0005     0.0403    -0.8000    13.0000     5.5000     5.5000    15.0000    -1.0055     1.5000   675.0000    10.0000   675.010
      9     8.4000     45.000  15338.000  51146.000    119.000    152.000    126.000    134.000    146.000    111.000    118.000     82.000    180.000    209.000    160.000    189.000    177.000    222.000    123.000    154.000    118.000    151.000    175.000    120.000    168.000    150.000    149.000    125.000    167.000    133.000    147.000    106.000    121.000    142.000    116.000    125.000    151.000    134.000    111.000    156.000    142.000    242.000    134.000    107.000    148.000    164.000    140.000  44902.000     0.0000     0.0000    -0.0310     0.0000    -0.8000     0.0000   -80.0000    -0.0016     0.0005     0.0403    -0.8000    13.0000     5.5000     5.5000    15.0000    -1.0055     1.5000   675.0000    10.0000   675.002
     10     8.4500     45.000  15428.000  51170.000    112.000    133.000    136.000    115.000    179.000    121.000    109.000    122.000    180.000    240.000    178.000    193.000    188.000    200.000    113.000    166.000    135.000    166.000    163.000    130.000    220.000    191.000    132.000    138.000    147.000    110.000    137.000    112.000    119.000    173.000    116.000    130.000    124.000    145.000    144.000    135.000    107.000    258.000    128.000    110.000    163.000    169.000    161.000  44722.000     0.0000     0.0000    -0.0310     0.0000    -0.8000     0.0000   -80.0000    -0.0016     0.0005     0.0403    -0.8000    13.0000     5.5000     5.5000    15.0000    -1.0055     1.5000   675.0000    10.0000   674.993
     11     8.5000     45.000  15483.000  50918.000     87.000    150.000    119.000    115.000    150.000    116.000    119.000    119.000    152.000    221.000    141.000    196.000    120.000    166.000    119.000    189.000    122.000    173.000    147.000    118.000    212.000    163.000    147.000    135.000    142.000    121.000    134.000    113.000    131.000    145.000    128.000    117.000    138.000    125.000    157.000    162.000    130.000    276.000    129.000     98.000    160.000    157.000    137.000  44722.000     0.0000     0.0000    -0.0310     0.0000    -0.8000     0.0000   -80.0000    -0.0016     0.0005     0.0403    -0.8000    13.0000     5.5000     5.5000    15.0000    -1.0055     1.5000   675.0000    10.0000   674.987
     12     8.5500     45.000  15531.000  51053.000    127.000    143.000    129.000    149.000    170.000    106.000    123.000    111.000    165.000    237.000    158.000    155.000    161.000    152.000    113.000    181.000    121.000    171.000    147.000    103.000    242.000    146.000    138.000    126.000    139.000    111.000    136.000    114.000    142.000    133.000    140.000    159.000    145.000    144.000    126.000    168.000    161.000    225.000    121.000    121.000    170.000    176.000    126.000  44722.000     0.0000     0.0000    -0.0310     0.0000    -0.8000     0.0000   -80.0000    -0.0016     0.0005     0.0403    -0.8000    13.0000     5.5000     5.5000    15.0000    -1.0055     1.5000   675.0000    10.0000   674.996
     13     8.6000     45.000  15343.000  51171.000    121.000    142.000    133.000    147.000    172.000    138.000    109.000    114.000    180.000    225.000    147.000    173.000    124.000    131.000    110.000    156.000    125.000    151.000    137.000    126.000    274.000    155.000    149.000    137.000    118.000    127.000    122.000    119.000    118.000    149.000    119.000    113.000    143.000    130.000    129.000    162.000    153.000    224.000    165.000    114.000    166.000    188.000    135.000  44901.000     0.0000     0.0000    -0.0310     0.0000    -0.8000     0.0000   -80.0000    -0.0016     0.0005     0.0403    -0.8000    13.0000     5.5000     5.5000    15.0000    -1.0055     1.5000   675.0000    10.0000   675.000
     14     8.6500     45.000  15395.000  51053.000    105.000    143.000    124.000    121.000    166.000    122.000    123.000    115.000    167.000    177.000    167.000    162.000    126.000    158.000    104.000    149.000    134.000    136.000    126.000    119.000    273.000    142.000    180.000    148.000    126.000    105.000    117.000    122.000    140.000    141.000    143.000    124.000    132.000    150.000    148.000    156.000    134.000    250.000    135.000    125.000    186.000    200.000    150.000  44782.000     0.0000     0.0000    -0.0310     0.0000    -0.8000     0.0000   -80.0000    -0.0016     0.0005     0.0403    -0.8000    13.0000     5.5000     5.5000    15.0000    -1.0055     1.5000   675.0000    10.0000   674.987
     15     8.7000     45.000  15630.000  51017.000     93.000    139.000    137.000    123.000    169.000    103.000    122.000    113.000    165.000    191.000    155.000    163.000    112.000    140.000    104.000    132.000    119.000    153.000    147.000    100.000    256.000    130.000    163.000    120.000    128.000    118.000    165.000    122.000    124.000    138.000    122.000    124.000    154.000    137.000    149.000    142.000    135.000    252.000    141.000    110.000    150.000    202.000    134.000  44921.000     0.0000     0.0000    -0.0310     0.0000    -0.8000     0.0000   -80.0000    -0.0016     0.0005     0.0403    -0.8000    13.0000     5.5000     5.5000    15.0000    -1.0055     1.5000   675.0000    10.0000   674.996
     16     8.7500     45.000  15444.000  50993.000    120.000    159.000    132.000    125.000    176.000    118.000    102.000    134.000    163.000    152.000    163.000    160.000    124.000    128.000    111.000    128.000    128.000    122.000    177.000    118.000    234.000    129.000    157.000    128.000    118.000    119.000    114.000    114.000    134.000    163.000    145.000    142.000    146.000    166.000    144.000    181.000    143.000    278.000    142.000    137.000    164.000    191.000    142.000  44722.000     0.0000     0.0000    -0.0310     0.0000    -0.8000     0.0000   -80.0000    -0.0016     0.0005     0.0403    -0.8000    13.0000     5.5000     5.5000    15.0000    -1.0055     1.5000   675.0000    10.0000   675.007
     17     8.8000     45.000  15149.000  51047.000    130.000    125.000    105.000    140.000    174.000    123.000     98.000    146.000    124.000    154.000    171.000    171.000    125.000    131.000    104.000    131.000    124.000    120.000    165.000    125.000    296.000    143.000    180.000    132.000    105.000    100.000    140.000    119.000     97.000    133.000    126.000    146.000    146.000    139.000    137.000    159.000    120.000    254.000    123.000    147.000    164.000    192.000    161.000  44902.000     0.0000     0.0000    -0.0310     0.0000    -0.8000     0.0000   -80.0000    -0.0016     0.0005     0.0403    -0.8000    13.0000     5.5000     5.5000    15.0000    -1.0055     1.5000   675.0000    10.0000   675.003
     18     8.8500     45.000  15465.000  50967.000     98.000    140.000    133.000    131.000    195.000    109.000    135.000    133.000    143.000    167.000    172.000    157.000    130.000    143.000    136.000    122.000    123.000    130.000    181.000    126.000    260.000    121.000    177.000    124.000    123.000     94.000    124.000    138.000    101.000    133.000    121.000    149.000    161.000    157.000    138.000    160.000    115.000    244.000    140.000    134.000    181.000    212.000    134.000  44722.000     0.0000     0.0000    -0.0310     0.0000    -0.8000     0.0000   -80.0000    -0.0016     0.0005     0.0403    -0.8000    13.0000     5.5000     5.5000    15.0000    -1.0055     1.5000   675.0000    10.0000   675.003
     19     8.9000     45.000  15341.000  51106.000    124.000    113.000    142.000    152.000    177.000    102.000    115.000    153.000    135.000    145.000    147.000    199.000    123.000    147.000    128.000    110.000    122.000    129.000    195.000    133.000    243.000    117.000    156.000    127.000    126.000     80.000    128.000    139.000     98.000    146.000    152.000    147.000    177.000    140.000    155.000    177.000    137.000    230.000    134.000    112.000    148.000    209.000    136.000  44901.000     0.0000     0.0000    -0.0310     0.0000    -0.8000     0.0000   -80.0000    -0.0016     0.0005     0.0403    -0.8000    13.0000     5.5000     5.5000    15.0000    -1.0055     1.5000   675.0000    10.0000   675.013
     20     8.9500     45.000  15457.000  51217.000    102.000    119.000    134.000    146.000    183.000    125.000    128.000    177.000    104.000    121.000    149.000    194.000    128.000    148.000    124.000    124.000    124.000    148.000    160.000    168.000    202.000    141.000    192.000    119.000    136.000    100.000    114.000    134.000    129.000    157.000    127.000    161.000    172.000    128.000    132.000    190.000    123.000    222.000    130.000    128.000    180.000    205.000    168.000  44921.000     0.0000     0.0000    -0.0310     0.0000    -0.8000     0.0000   -80.0000    -0.0016     0.0005     0.0403    -0.8000    13.0000     5.5000     5.5000    15.0000    -1.0055     1.5000   675.0000    10.0000   675.020
     21     9.0000     45.000  15474.000  51121.000    110.000    135.000    120.000    116.000    183.000    110.000    128.000    190.000    146.000    137.000    131.000    194.000    121.000    113.000    107.000    112.000    127.000    144.000    158.000    184.000    199.000    129.000    180.000    114.000    142.000     91.000    123.000    134.000    129.000    138.000    107.000    169.000    172.000    148.000    162.000    182.000    127.000    226.000    126.000    129.000    157.000    204.000    146.000  44921.000     0.0000     0.0000    -0.0310     0.0000    -0.8000     0.0000   -80.0000    -0.0016     0.0005     0.0403    -0.8000    13.0000     5.5000     5.5000    15.0000    -1.0055     1.5000   675.0000    10.0000   675.007
     22     9.0500     45.000  15535.000  51036.000    115.000    146.000    116.000    141.000    163.000    131.000    117.000    200.000    121.000    147.000    125.000    242.000    140.000    125.000     98.000    118.000    136.000    146.000    176.000    217.000    225.000    119.000    154.000    114.000    154.000    109.000    112.000    140.000    110.000    149.000    105.000    209.000    153.000    141.000    141.000    174.000    135.000    201.000    125.000    117.000    177.000    199.000    151.000  44702.000     0.0000     0.0000    -0.0310     0.0000    -0.8000     0.0000   -80.0000    -0.0016     0.0005     0.0403    -0.8000    13.0000     5.5000     5.5000    15.0000    -1.0055     1.5000   675.0000    10.0000   674.989
     23     9.1000     45.000  15233.000  51074.000     96.000    141.000    121.000    112.000    174.000     96.000    147.000    218.000    132.000    143.000    127.000    221.000    153.000    106.000    117.000    107.000    136.000    157.000    178.000    218.000    214.000    116.000    155.000    138.000    178.000     93.000    112.000    133.000    145.000    128.000    131.000    177.000    180.000    138.000    123.000    186.000    125.000    213.000    118.000    118.000    163.000    207.000    161.000  44722.000     0.0000     0.0000    -0.0310     0.0000    -0.8000     0.0000   -80.0000    -0.0016     0.0005     0.0403    -0.8000    13.0000     5.5000     5.5000    15.0000    -1.0055     1.5000   675.0000    10.0000   674.991
     24     9.1500     45.000  15468.000  51018.000    116.000    115.000    128.000    143.000    142.000    109.000    114.000    189.000    125.000    135.000    119.000    223.000    152.000     96.000    126.000    109.000    164.000    148.000    158.000    197.000    222.000    148.000    169.000    128.000    181.000     82.000    127.000    120.000    128.000    127.000    118.000    207.000    166.000    176.000    145.000    180.000    118.000    188.000    137.000    131.000    144.000    216.000    150.000  44702.000     0.0000     0.0000    -0.0310     0.0000    -0.8000     0.0000   -80.0000    -0.0016     0.0005     0.0403    -0.8000    13.0000     5.5000     5.5000    15.0000    -1.0055     1.5000   675.0000    10.0000   674.989
     25     9.2000     45.000  15433.000  51197.000     96.000    133.000    129.000    139.000    154.000    115.000    106.000    170.000    161.000    138.000    122.000    253.000    172.000    108.000    110.000    115.000    121.000    156.000    131.000    189.000    204.000    132.000    149.000    131.000    214.000     96.000    109.000    101.000    121.000    130.000    119.000    252.000    163.000    146.000    135.000    169.000    136.000    192.000    158.000    126.000    161.000    192.000    142.000  44901.000     0.0000     0.0000    -0.0310     0.0000    -0.8000     0.0000   -80.0000    -0.0016     0.0005     0.0403    -0.8000    13.0000     5.5000     5.5000    15.0000    -1.0055     1.5000   675.0000    10.0000   675.001
     26     9.2500     45.000  15320.000  51259.000    110.000    144.000    128.000    152.000    141.000    103.000    134.000    185.000    181.000    140.000    126.000    176.000    153.000    108.000    124.000    118.000    126.000    172.000    142.000    209.000    180.000    128.000    149.000    116.000    213.000     97.000    113.000    116.000    114.000    153.000    117.000    232.000    144.000    140.000    138.000    200.000    142.000    195.000    124.000    122.000    158.000    234.000    141.000  44921.000     0.0000     0.0000    -0.0310     0.0000    -0.8000     0.0000   -80.0000    -0.0016     0.0005     0.0403    -0.8000    13.0000     5.5000     5.5000    15.0000    -1.0055     1.5000   675.0000    10.0000   674.972
     27     9.3000     45.000  15494.000  51232.000    115.000    136.000    121.000    133.000    168.000    118.000    128.000    155.000    199.000    151.000    135.000    188.000    155.000    104.000    104.000    136.000    138.000    194.000    128.000    171.000    187.000    164.000    142.000    104.000    189.000    104.000    123.000    113.000    119.000    145.000    117.000    224.000    164.000    148.000    135.000    170.000    143.000    200.000    125.000    121.000    161.000    221.000    135.000  44901.000     0.0000     0.0000    -0.0310     0.0000    -0.8000     0.0000   -80.0000    -0.0016     0.0005     0.0403    -0.8000    13.0000     5.5000     5.5000    15.0000    -1.0055     1.5000   675.0000    10.0000   674.995
     28     9.3500     45.000  15449.000  50699.000    119.000    128.000    142.000    115.000    159.000     93.000    121.000    140.000    199.000    136.000    127.000    190.000    139.000    109.000    114.000    121.000    157.000    167.000    124.000    164.000    147.000    146.000    141.000     93.000    169.000     98.000    120.000    103.000    134.000    152.000     97.000    220.000    145.000    128.000    143.000    158.000    139.000    185.000    110.000    122.000    138.000    184.000    141.000  44722.000     0.0000     0.0000    -0.0310     0.0000    -0.8000     0.0000   -80.0000    -0.0016     0.0005     0.0403    -0.8000    13.0000     5.5000     5.5000    15.0000    -1.0055     1.5000   675.0000    10.0000   674.990
     29     9.4000     45.000  15439.000  50946.000    129.000    157.000    141.000    121.000    170.000     94.000    100.000    121.000    247.000    146.000    156.000    173.000    184.000    105.000    137.000    107.000    199.000    188.000    141.000    149.000    123.000    167.000    141.000    111.000    174.000    110.000    106.000    118.000    138.000    130.000    106.000    206.000    171.000    132.000    135.000    189.000    115.000    176.000    129.000     99.000    144.000    198.000    141.000  44722.000     0.0000     0.0000    -0.0310     0.0000    -0.8000     0.0000   -80.0000    -0.0016     0.0005     0.0403    -0.8000    13.0000     5.5000     5.5000    15.0000    -1.0055     1.5000   675.0000    10.0000   675.003
     30     9.4500     45.000  15316.000  51311.000    121.000    170.000    139.000    127.000    142.000    115.000     94.000    124.000    273.000    132.000    174.000    160.000    161.000     97.000    127.000    132.000    219.000    227.000    123.000    137.000    147.000    160.000    111.000    120.000    149.000    100.000    132.000    104.000    137.000    166.000    120.000    214.000    133.000    172.000    142.000    180.000    147.000    180.000    139.000    125.000    156.000    201.000    160.000  44922.000     0.0000     0.0000    -0.0310     0.0000    -0.8000     0.0000   -80.0000    -0.0016     0.0005     0.0403    -0.8000    13.0000     5.5000     5.5000    15.0000    -1.0055     1.5000   675.0000    10.0000   675.015
     31     9.5000     45.000  15477.000  51194.000    123.000    133.000    143.000    158.000    150.000    125.000    113.000     80.000    320.000    131.000    158.000    170.000    153.000    115.000    104.000    125.000    226.000    261.000    135.000    117.000    125.000    159.000    105.000    133.000    143.000    109.000    121.000    139.000    120.000    164.000    105.000    211.000    144.000    134.000    109.000    148.000    125.000    178.000    141.000    129.000    145.000    217.000    129.000  44921.000     0.0000     0.0000    -0.0310     0.0000    -0.8000     0.0000   -80.0000    -0.0016     0.0005     0.0403    -0.8000    13.0000     5.5000     5.5000    15.0000    -1.0055     1.5000   675.0000    10.0000   674.999
     32     9.5500     45.000  15436.000  51118.000    102.000    181.000    123.000    165.000    184.000    130.000    129.000     95.000    322.000    132.000    187.000    147.000    168.000    113.000    110.000    116.000    197.000    284.000    154.000    106.000    125.000    142.000    136.000    122.000    150.000     92.000    115.000    130.000    135.000    169.000    107.000    190.000    144.000    139.000    138.000    168.000    143.000    153.000    144.000     95.000    155.000    189.000    189.000  44703.000     0.0000     0.0000    -0.0310     0.0000    -0.8000     0.0000   -80.0000    -0.0016     0.0005     0.0403    -0.8000    13.0000     5.5000     5.5000    15.0000    -1.0055     1.5000   675.0000    10.0000   674.976
     33     9.6000     45.000  15398.000  51591.000    128.000    201.000    118.000    157.000    205.000    120.000    109.000    106.000    315.000    139.000    259.000    154.000    194.000    134.000    111.000     99.000    226.000    298.000    147.000    122.000    123.000    143.000    116.000    147.000    138.000    112.000    146.000    128.000    136.000    170.000    133.000    189.000    154.000    147.000    139.000    154.000    125.000    176.000    143.000    137.000    149.000    175.000    147.000  44922.000     0.0000     0.0000    -0.0310     0.0000    -0.8000     0.0000   -80.0000    -0.0016     0.0005     0.0403    -0.8000    13.0000     5.5000     5.5000    15.0000    -1.0055     1.5000   675.0000    10.0000   675.002
     34     9.6500     45.000  15418.000  51311.000    122.000    193.000    133.000    134.000    203.000    143.000    119.000     91.000    272.000    139.000    250.000    144.000    188.000    110.000    103.000    139.000    226.000    278.000    160.000    125.000    135.000    147.000    129.000    128.000    167.000    105.000     93.000    118.000    175.000    155.000    127.000    183.000    150.000    152.000    140.000    144.000    134.000    181.000    138.000    114.000    152.000    206.000    164.000  44702.000     0.0000     0.0000    -0.0310     0.0000    -0.8000     0.0000   -80.0000    -0.0016     0.0005     0.0403    -0.8000    13.0000     5.5000     5.5000    15.0000    -1.0055     1.5000   675.0000    10.0000   675.004
     35     9.7000     45.000  15204.000  51270.000    105.000    201.000    139.000    131.000    255.000    144.000     97.000     90.000    231.000    155.000    251.000    146.000    236.000    114.000    118.000    133.000    182.000    281.000    158.000    113.000    117.000    146.000    129.000    135.000    136.000    112.000    125.000    114.000    158.000    172.000    116.000    178.000    137.000    157.000    134.000    155.000    118.000    175.000    154.000    108.000    153.000    195.000    144.000  44722.000     0.0000     0.0000    -0.0310     0.0000    -0.8000     0.0000   -80.0000    -0.0016     0.0005     0.0403    -0.8000    13.0000     5.5000     5.5000    15.0000    -1.0055     1.5000   675.0000    10.0000   675.001
     36     9.7500     45.000  15374.000  51525.000    126.000    276.000    136.000    149.000    277.000    154.000    108.000    108.000    213.000    164.000    232.000    116.000    263.000    100.000    104.000    139.000    178.000    258.000    220.000    129.000    142.000    161.000    144.000     98.000    154.000    109.000    123.000    106.000    159.000    213.000    137.000    151.000    129.000    158.000    143.000    162.000    155.000    164.000    148.000    124.000    149.000    180.000    144.000  44722.000     0.0000     0.0000    -0.0310     0.0000    -0.8000     0.0000   -80.0000    -0.0016     0.0005     0.0403    -0.8000    13.0000     5.5000     5.5000    15.0000    -1.0055     1.5000   675.0000    10.0000   675.004
     37     9.8000     45.000  15329.000  51370.000    109.000    233.000    114.000    171.000    291.000    178.000     98.000     93.000    166.000    191.000    237.000    133.000    245.000    108.000    119.000    107.000    168.000    245.000    258.000    135.000    120.000    160.000    125.000    123.000    141.000    106.000    139.000    112.000    157.000    238.000    136.000    143.000    122.000    137.000    140.000    145.000    120.000    174.000    131.000    119.000    141.000    161.000    178.000  44703.000     0.0000     0.0000    -0.0310     0.0000    -0.8000     0.0000   -80.0000    -0.0016     0.0005     0.0403    -0.8000    13.0000     5.5000     5.5000    15.0000    -1.0055     1.5000   675.0000    10.0000   675.013
     38     9.8500     45.000  15673.000  51373.000    106.000    261.000    107.000    178.000    248.000    155.000    106.000    115.000    148.000    229.000    195.000    148.000    292.000    100.000    111.000    122.000    163.000    232.000    235.000    151.000    153.000    151.000    134.000    108.000    123.000    108.000    126.000    115.000    165.000    247.000    125.000    132.000    140.000    151.000    138.000    125.000    140.000    160.000    134.000    114.000    161.000    174.000    144.000  44703.000     0.0000     0.0000    -0.0310     0.0000    -0.8000     0.0000   -80.0000    -0.0016     0.0005     0.0403    -0.8000    13.0000     5.5000     5.5000    15.0000    -1.0055     1.5000   675.0000    10.0000   675.004
     39     9.9000     45.000  15406.000  51400.000    118.000    328.000    129.000    166.000    249.000    182.000    104.000    125.000    147.000    238.000    183.000    147.000    337.000     90.000    105.000    122.000    136.000    224.000    211.000    128.000    147.000    130.000    116.000    122.000    131.000    111.000    102.000    103.000    155.000    239.000    103.000    134.000    139.000    169.000    148.000    134.000    139.000    158.000    146.000    120.000    155.000    177.000    151.000  44702.000     0.0000     0.0000    -0.0310     0.0000    -0.8000     0.0000   -80.0000    -0.0016     0.0005     0.0403    -0.8000    13.0000     5.5000     5.5000    15.0000    -1.0055     1.5000   675.0000    10.0000   674.999
     40     9.9500     45.000  15402.000  51447.000    117.000    278.000    136.000    176.000    220.000    155.000    117.000     90.000    167.000    259.000    152.000    144.000    422.000     89.000    137.000    124.000    115.000    214.000    192.000    164.000    140.000    137.000    125.000    107.000    131.000    111.000    124.000    115.000    184.000    222.000    117.000    155.000    150.000    139.000    142.000    162.000    144.000    139.000    133.000    111.000    157.000    161.000    151.000  44722.000     0.0000     0.0000    -0.0310     0.0000    -0.8000     0.0000   -80.0000    -0.0016     0.0005     0.0403    -0.8000    13.0000     5.5000     5.5000    15.0000    -1.0055     1.5000   675.0000    10.0000   675.004
     41    10.0000     45.000  15414.000  51850.000     92.000    311.000    106.000    185.000    216.000    125.000    113.000    111.000    138.000    267.000    150.000    157.000    411.000     76.000    150.000    111.000    162.000    261.000    175.000    217.000    164.000    158.000    131.000    113.000    163.000    134.000    112.000    115.000    175.000    239.000    141.000    130.000    139.000    150.000    146.000    150.000    143.000    152.000    124.000    124.000    164.000    162.000    166.000  44921.000     0.0000     0.0000    -0.0310     0.0000    -0.8000     0.0000   -80.0000    -0.0016     0.0005     0.0403    -0.8000    13.0000     5.5000     5.5000    15.0000    -1.0055     1.5000   675.0000    10.0000   675.002
     42    10.0500     45.000  15496.000  51947.000     98.000    271.000    131.000    185.000    177.000    122.000    122.000    105.000    144.000    301.000    146.000    139.000    455.000     83.000    196.000    124.000    144.000    298.000    165.000    235.000    169.000    155.000    112.000    132.000    175.000    140.000    131.000    137.000    149.000    215.000    130.000    126.000    140.000    160.000    153.000    119.000    154.000    153.000    141.000    118.000    148.000    176.000    172.000  44901.000     0.0000     0.0000    -0.0310     0.0000    -0.8000     0.0000   -80.0000    -0.0016     0.0005     0.0403    -0.8000    13.0000     5.5000     5.5000    15.0000    -1.0055     1.5000   675.0000    10.0000   674.994
     43    10.1000     45.000  15417.000  51830.000    118.000    238.000    123.000    174.000    148.000    123.000    103.000     96.000    133.000    267.000    106.000    164.000    487.000    128.000    179.000    118.000    133.000    292.000    158.000    306.000    165.000    124.000    126.000    112.000    152.000    137.000    137.000    123.000    140.000    243.000    131.000    124.000    132.000    154.000    144.000    134.000    152.000    148.000    123.000    110.000    156.000    191.000    157.000  44921.000     0.0000     0.0000    -0.0310     0.0000    -0.8000     0.0000   -80.0000    -0.0016     0.0005     0.0403    -0.8000    13.0000     5.5000     5.5000    15.0000    -1.0055     1.5000   675.0000    10.0000   675.001
     44    10.1500     45.000  15493.000  51710.000    110.000    193.000    113.000    174.000    133.000     97.000    111.000    117.000    122.000    244.000    133.000    146.000    476.000     80.000    213.000     96.000    160.000    340.000    137.000    444.000    201.000    127.000    122.000    132.000    145.000    148.000    127.000    118.000    144.000    198.000    102.000    147.000    155.000    138.000    152.000    137.000    158.000    135.000    150.000    116.000    192.000    157.000    148.000  44722.000     0.0000     0.0000    -0.0310     0.0000    -0.8000     0.0000   -80.0000    -0.0016     0.0005     0.0403    -0.8000    13.0000     5.5000     5.5000    15.0000    -1.0055     1.5000   675.0000    10.0000   675.007
     45    10.2000     45.000  15223.000  51940.000    104.000    160.000    115.000    150.000    157.000    114.000    104.000    109.000    119.000    236.000    120.000    184.000    386.000    112.000    211.000     97.000    128.000    351.000    150.000    586.000    220.000    124.000    112.000    148.000    165.000    168.000    125.000    101.000    161.000    190.000    118.000    139.000    135.000    159.000    160.000    119.000    150.000    176.000    149.000     97.000    138.000    155.000    137.000  44901.000     0.0000     0.0000    -0.0310     0.0000    -0.8000     0.0000   -80.0000    -0.0016     0.0005     0.0403    -0.8000    13.0000     5.5000     5.5000    15.0000    -1.0055     1.5000   675.0000    10.0000   675.006
     46    10.2500     45.000  15407.000  52028.000    110.000    126.000    117.000    171.000    138.000    110.000    113.000     88.000    126.000    218.000    133.000    146.000    344.000    101.000    222.000    109.000    151.000    361.000    133.000    648.000    244.000    137.000    120.000    146.000    152.000    155.000    103.000    129.000    152.000    183.000    130.000    135.000    141.000    135.000    140.000    137.000    170.000    165.000    133.000    116.000    176.000    174.000    169.000  44921.000     0.0000     0.0000    -0.0310     0.0000    -0.8000     0.0000   -80.0000    -0.0016     0.0005     0.0403    -0.8000    13.0000     5.5000     5.5000    15.0000    -1.0055     1.5000   675.0000    10.0000   675.001
     47    10.3000     45.000  15403.000  52075.000    117.000    136.000    111.000    207.000    121.000    117.000    101.000    106.000    124.000    224.000    120.000    133.000    258.000    110.000    176.000    124.000    148.000    353.000    130.000    773.000    274.000    120.000    128.000    146.000    131.000    181.000    152.000    104.000    119.000    184.000    142.000    131.000    147.000    149.000    175.000    168.000    158.000    142.000    120.000    107.000    163.000    165.000    179.000  44901.000     0.0000     0.0000    -0.0310     0.0000    -0.8000     0.0000   -80.0000    -0.0016     0.0005     0.0403    -0.8000    13.0000     5.5000     5.5000    15.0000    -1.0055     1.5000   675.0000    10.0000   674.992
     48    10.3500     45.000  15555.000  51870.000    137.000    117.000    140.000    222.000    123.000    100.000    104.000    112.000    133.000    286.000    120.000    135.000    193.000     87.000    181.000    113.000    143.000    306.000    145.000    852.000    341.000    115.000    118.000    129.000    127.000    165.000    126.000    122.000    130.000    161.000    104.000    117.000    148.000    145.000    152.000    149.000    169.000    146.000    141.000    106.000    201.000    151.000    136.000  44722.000     0.0000     0.0000    -0.0310     0.0000    -0.8000     0.0000   -80.0000    -0.0016     0.0005     0.0403    -0.8000    13.0000     5.5000     5.5000    15.0000    -1.0055     1.5000   675.0000    10.0000   674.991
     49    10.4000     45.000  15623.000  51863.000    126.000    134.000    127.000    215.000    111.000     96.000    109.000    105.000    159.000    310.000    140.000    144.000    177.000     95.000    184.000    120.000    151.000    273.000    137.000    843.000    316.000    113.000    142.000    163.000    149.000    158.000    112.000    127.000    126.000    160.000    103.000    120.000    131.000    144.000    172.000    125.000    164.000    146.000    130.000    117.000    164.000    148.000    155.000  44722.000     0.0000     0.0000    -0.0310     0.0000    -0.8000     0.0000   -80.0000    -0.0016     0.0005     0.0403    -0.8000    13.0000     5.5000     5.5000    15.0000    -1.0055     1.5000   675.0000    10.0000   675.009
     50    10.4500     45.000  15486.000  51855.000    121.000    130.000    109.000    265.000    149.000     95.000     95.000    120.000    166.000    415.000    138.000    101.000    152.000     83.000    149.000    111.000    148.000    221.000    159.000    792.000    335.000    112.000    131.000    160.000    131.000    195.000    131.000    127.000    124.000    159.000    128.000    137.000    138.000    132.000    157.000    121.000    171.000    151.000    143.000    112.000    145.000    132.000    162.000  44702.000     0.0000     0.0000    -0.0310     0.0000    -0.8000     0.0000   -80.0000    -0.0016     0.0005     0.0403    -0.8000    13.0000     5.5000     5.5000    15.0000    -1.0055     1.5000   675.0000    10.0000   674.985
     51    10.5000     45.000  15696.000  52233.000    110.000    116.000    139.000    258.000    106.000     94.000    101.000    153.000    165.000    466.000    143.000    148.000    159.000     90.000    146.000    110.000    161.000    210.000    162.000    746.000    334.000    146.000    143.000    169.000    176.000    150.000    123.000    127.000    140.000    156.000    111.000    126.000    118.000    123.000    154.000    121.000    190.000    157.000    144.000    126.000    182.000    156.000    157.000  44921.000     0.0000     0.0000    -0.0310     0.0000    -0.8000     0.0000   -80.0000    -0.0016     0.0005     0.0403    -0.8000    13.0000     5.5000     5.5000    15.0000    -1.0055     1.5000   675.0000    10.0000   674.994
     52    10.5500     45.000  15435.000  51965.000    110.000    112.000    127.000    296.000    139.000    101.000    115.000    156.000    199.000    537.000    116.000    113.000    159.000    100.000    138.000    124.000    152.000    179.000    159.000    546.000    333.000    105.000    144.000    168.000    136.000    143.000    106.000    155.000    115.000    155.000    117.000    129.000    125.000    134.000    169.000    137.000    150.000    139.000    131.000    115.000    169.000    147.000    164.000  44901.000     0.0000     0.0000    -0.0310     0.0000    -0.8000     0.0000   -80.0000    -0.0016     0.0005     0.0403    -0.8000    13.0000     5.5000     5.5000    15.0000    -1.0055     1.5000   675.0000    10.0000   675.006
     53    10.6000     45.000  15185.000  52093.000    118.000    145.000    129.000    333.000    116.000    113.000    110.000    172.000    271.000    597.000    128.000    110.000    153.000     92.000    132.000    129.000    149.000    170.000    169.000    499.000    251.000    132.000    135.000    168.000    155.000    140.000    138.000    141.000    115.000    133.000    126.000    138.000    150.000    130.000    145.000    128.000    157.000    153.000    100.000    126.000    167.000    146.000    163.000  44921.000     0.0000     0.0000    -0.0310     0.0000    -0.8000     0.0000   -80.0000    -0.0016     0.0005     0.0403    -0.8000    13.0000     5.5000     5.5000    15.0000    -1.0055     1.5000   675.0000    10.0000   674.993
     54    10.6500     45.000  15494.000  51837.000    117.000    108.000    111.000    369.000    113.000     97.000    100.000    207.000    318.000    601.000    138.000    117.000    167.000     95.000    141.000    115.000    132.000    157.000    158.000    342.000    217.000    137.000    132.000    181.000    147.000    150.000    130.000    153.000    127.000    146.000    133.000    127.000    114.000    117.000    150.000    130.000    191.000    147.000    142.000    126.000    174.000    151.000    151.000  44761.000     0.0000     0.0000    -0.0310     0.0000    -0.8000     0.0000   -80.0000    -0.0016     0.0005     0.0403    -0.8000    13.0000     5.5000     5.5000    15.0000    -1.0055     1.5000   675.0000    10.0000   675.001
     55    10.7000     45.000  15212.000  52034.000    121.000    131.000    133.000    365.000    127.000     98.000    107.000    208.000    332.000    528.000    136.000    158.000    167.000     99.000    129.000    117.000    135.000    167.000    183.000    265.000    216.000    130.000    145.000    172.000    129.000    146.000    129.000    120.000    125.000    141.000    149.000    132.000    134.000    162.000    141.000    132.000    181.000    142.000    136.000    133.000    162.000    181.000    169.000  44921.000     0.0000     0.0000    -0.0310     0.0000    -0.8000     0.0000   -80.0000    -0.0016     0.0005     0.0403    -0.8000    13.0000     5.5000     5.5000    15.0000    -1.0055     1.5000   675.0000    10.0000   674.997
     56    10.7500     45.000  15260.000  51629.000    105.000    122.000    120.000    398.000    128.000    100.000    100.000    249.000    370.000    453.000    136.000    136.000    164.000    106.000    134.000    117.000    169.000    158.000    140.000    177.000    160.000    125.000    136.000    190.000    114.000    143.000    136.000    121.000    128.000    157.000    122.000    125.000    140.000    125.000    150.000    136.000    189.000    152.000    131.000    154.000    176.000    152.000    183.000  44702.000     0.0000     0.0000    -0.0310     0.0000    -0.8000     0.0000   -80.0000    -0.0016     0.0005     0.0403    -0.8000    13.0000     5.5000     5.5000    15.0000    -1.0055     1.5000   675.0000    10.0000   674.989
     57    10.8000     45.000  15543.000  51624.000    113.000    120.000    106.000    358.000    124.000     98.000    104.000    206.000    408.000    401.000    165.000    169.000    194.000    106.000    132.000    128.000    168.000    154.000    132.000    191.000    170.000    139.000    124.000    203.000    132.000    144.000    118.000    114.000    132.000    138.000    127.000    127.000    149.000    139.000    139.000    129.000    193.000    165.000    122.000    114.000    146.000    160.000    201.000  44722.000     0.0000     0.0000    -0.0310     0.0000    -0.8000     0.0000   -80.0000    -0.0016     0.0005     0.0403    -0.8000    13.0000     5.5000     5.5000    15.0000    -1.0055     1.5000   675.0000    10.0000   674.995
     58    10.8500     45.000  15456.000  51578.000    116.000    120.000    122.000    379.000    127.000     88.000     97.000    220.000    389.000    287.000    186.000    172.000    249.000    107.000    141.000    104.000    150.000    165.000    146.000    163.000    143.000    130.000    136.000    207.000    136.000    128.000    121.000    118.000    128.000    150.000    102.000    140.000    121.000    134.000    139.000    131.000    215.000    156.000    141.000    149.000    164.000    159.000    180.000  44722.000     0.0000     0.0000    -0.0310     0.0000    -0.8000     0.0000   -80.0000    -0.0016     0.0005     0.0403    -0.8000    13.0000     5.5000     5.5000    15.0000    -1.0055     1.5000   675.0000    10.0000   675.010
     59    10.9000     45.000  15282.000  51575.000    122.000    116.000    105.000    330.000    125.000    114.000    104.000    182.000    362.000    271.000    210.000    207.000    265.000     97.000    142.000    101.000    178.000    182.000    144.000    162.000    144.000    111.000    100.000    181.000    135.000    106.000    115.000    101.000    130.000    130.000    121.000    103.000    141.000    138.000    117.000    126.000    224.000    158.000    146.000    146.000    150.000    154.000    178.000  44901.000     0.0000     0.0000    -0.0310     0.0000    -0.8000     0.0000   -80.0000    -0.0016     0.0005     0.0403    -0.8000    13.0000     5.5000     5.5000    15.0000    -1.0055     1.5000   675.0000    10.0000   675.015
     60    10.9500     45.000  15325.000  51575.000    120.000    120.000    126.000    263.000    136.000    112.000    114.000    192.000    322.000    216.000    248.000    216.000    258.000    107.000    155.000    104.000    158.000    183.000    124.000    148.000    138.000    120.000    131.000    195.000    118.000    123.000    114.000    103.000    119.000    124.000    119.000    122.000    130.000    152.000    147.000    135.000    220.000    163.000    144.000    127.000    164.000    152.000    191.000  44902.000     0.0000     0.0000    -0.0310     0.0000    -0.8000     0.0000   -80.0000    -0.0016     0.0005     0.0403    -0.8000    13.0000     5.5000     5.5000    15.0000    -1.0055     1.5000   675.0000    10.0000   675.010
     61    11.0000     45.000  15315.000  51571.000    144.000    121.000    127.000    228.000    130.000    114.000    119.000    163.000    268.000    231.000    269.000    182.000    283.000    101.000    152.000    123.000    172.000    182.000    114.000    140.000    154.000    145.000    120.000    185.000    106.000    122.000    110.000    123.000    137.000    134.000    119.000    140.000    122.000    152.000    136.000    126.000    219.000    139.000    138.000    134.000    168.000    153.000    204.000  44922.000     0.0000     0.0000    -0.0310     0.0000    -0.8000     0.0000   -80.0000    -0.0016     0.0005     0.0403    -0.8000    13.0000     5.5000     5.5000    15.0000    -1.0055     1.5000   675.0000    10.0000   675.003
     62    11.0500     45.000  15032.000  51187.000    143.000    105.000    139.000    178.000    125.000    104.000    121.000    131.000    247.000    197.000    324.000    177.000    213.000    103.000    140.000    104.000    191.000    172.000    125.000    145.000    181.000    124.000    132.000    179.000    134.000    117.000    117.000     98.000    123.000    136.000    132.000    112.000    120.000    128.000    152.000    134.000    220.000    159.000    140.000    130.000    183.000    142.000    188.000  44722.000     0.0000     0.0000    -0.0310     0.0000    -0.8000     0.0000   -80.0000    -0.0016     0.0005     0.0403    -0.8000    13.0000     5.5000     5.5000    15.0000    -1.0055     1.5000   675.0000    10.0000   674.996
     63    11.1000     45.000  15331.000  51068.000    140.000    140.000    120.000    147.000    128.000     86.000    104.000    136.000    199.000    196.000    273.000    161.000    223.000    112.000    178.000    109.000    167.000    159.000    107.000    160.000    165.000    147.000    124.000    137.000    135.000    125.000    133.000    113.000    140.000    128.000    128.000    143.000    109.000    152.000    173.000    158.000    217.000    155.000    134.000    128.000    154.000    144.000    179.000  44702.000     0.0000     0.0000    -0.0310     0.0000    -0.8000     0.0000   -80.0000    -0.0016     0.0005     0.0403    -0.8000    13.0000     5.5000     5.5000    15.0000    -1.0055     1.5000   675.0000    10.0000   674.987
     64    11.1500     45.000  15451.000  51425.000    132.000    135.000    126.000    174.000    140.000    109.000    131.000    148.000    242.000    172.000    225.000    155.000    201.000    104.000    176.000    103.000    183.000    149.000    151.000    172.000    144.000    164.000    117.000    136.000    155.000    111.000    125.000    110.000    129.000    151.000    110.000    127.000    149.000    149.000    161.000    136.000    263.000    148.000    124.000    143.000    183.000    148.000    192.000  44922.000     0.0000     0.0000    -0.0310     0.0000    -0.8000     0.0000   -80.0000    -0.0016     0.0005     0.0403    -0.8000    13.0000     5.5000     5.5000    15.0000    -1.0055     1.5000   675.0000    10.0000   675.007
     65    11.2000     45.000  15323.000  51237.000    141.000     99.000    115.000    145.000    149.000     98.000    131.000    147.000    226.000    168.000    225.000    124.000    158.000     98.000    165.000    118.000    157.000    151.000    149.000    184.000    145.000    158.000    120.000    123.000    117.000    110.000    137.000    107.000    141.000    136.000    141.000    133.000    123.000    144.000    156.000    137.000    260.000    168.000    163.000    128.000    172.000    127.000    221.000  44922.000     0.0000     0.0000    -0.0310     0.0000    -0.8000     0.0000   -80.0000    -0.0016     0.0005     0.0403    -0.8000    13.0000     5.5000     5.5000    15.0000    -1.0055     1.5000   675.0000    10.0000   674.999
     66    11.2500     45.000  15608.000  51379.000    143.000    114.000    132.000    182.000    154.000    100.000    129.000    145.000    232.000    160.000    174.000    133.000    162.000    110.000    175.000    102.000    183.000    152.000    129.000    200.000    182.000    162.000    131.000    122.000    140.000    118.000    133.000    122.000    130.000    133.000    124.000    142.000    137.000    161.000    165.000    141.000    250.000    140.000    129.000    133.000    196.000    142.000    233.000  44902.000     0.0000     0.0000    -0.0310     0.0000    -0.8000     0.0000   -80.0000    -0.0016     0.0005     0.0403    -0.8000    13.0000     5.5000     5.5000    15.0000    -1.0055     1.5000   675.0000    10.0000   674.999
     67    11.3000     45.000  15224.000  51171.000    140.000    121.000    119.000    185.000    116.000    103.000    125.000    129.000    209.000    163.000    178.000    126.000    157.000    107.000    151.000    116.000    203.000    124.000    119.000    224.000    133.000    156.000    124.000    126.000    121.000     87.000    127.000    103.000    126.000    150.000    134.000    136.000    135.000    148.000    174.000    137.000    235.000    142.000    140.000    124.000    181.000    165.000    230.000  44922.000     0.0000     0.0000    -0.0310     0.0000    -0.8000     0.0000   -80.0000    -0.0016     0.0005     0.0403    -0.8000    13.0000     5.5000     5.5000    15.0000    -1.0055     1.5000   675.0000    10.0000   674.999
     68    11.3500     45.000  15320.000  50853.000    132.000    109.000    149.000    143.000    133.000    108.000    120.000    160.000    160.000    146.000    157.000    129.000    169.000    101.000    115.000    120.000    183.000    138.000    127.000    226.000    111.000    157.000    104.000    121.000    119.000     93.000    150.000    119.000    130.000    146.000    144.000    148.000    138.000    117.000    157.000    127.000    245.000    170.000    131.000    132.000    199.000    156.000    212.000  44702.000     0.0000     0.0000    -0.0310     0.0000    -0.8000     0.0000   -80.0000    -0.0016     0.0005     0.0403    -0.8000    13.0000     5.5000     5.5000    15.0000    -1.0055     1.5000   675.0000    10.0000   674.999
     69    11.4000     45.000  15305.000  51135.000    106.000    124.000    117.000    215.000    153.000    127.000    153.000    128.000    187.000    163.000    163.000    109.000    167.000    106.000    132.000    110.000    176.000    167.000    131.000    219.000    139.000    155.000    104.000    130.000    121.000     93.000    138.000    127.000    140.000    151.000    134.000    141.000    156.000    163.000    180.000    129.000    240.000    146.000    136.000    120.000    172.000    156.000    229.000  44782.000     0.0000     0.0000    -0.0310     0.0000    -0.8000     0.0000   -80.0000    -0.0016     0.0005     0.0403    -0.8000    13.0000     5.5000     5.5000    15.0000    -1.0055     1.5000   675.0000    10.0000   674.986
     70    11.4500     45.000  15264.000  50933.000    121.000    109.000    130.000    159.000    112.000     99.000    140.000    123.000    167.000    129.000    189.000    123.000    148.000     91.000    138.000    119.000    159.000    159.000    143.000    248.000    123.000    159.000    124.000    138.000    122.000    100.000    153.000     97.000    132.000    118.000    141.000    175.000    147.000    151.000    191.000    110.000    221.000    155.000    137.000    133.000    188.000    135.000    275.000  44702.000     0.0000     0.0000    -0.0310     0.0000    -0.8000     0.0000   -80.0000    -0.0016     0.0005     0.0403    -0.8000    13.0000     5.5000     5.5000    15.0000    -1.0055     1.5000   675.0000    10.0000   674.993
     71    11.5000     45.000  15328.000  51369.000    119.000    125.000    134.000    197.000    136.000    115.000    139.000    140.000    160.000    176.000    170.000    125.000    177.000     96.000    113.000    113.000    159.000    183.000    170.000    254.000    139.000    174.000    129.000    136.000    122.000    107.000    159.000    107.000    141.000    137.000    137.000    161.000    125.000    151.000    214.000    131.000    230.000    159.000    153.000    119.000    201.000    122.000    253.000  44861.000     0.0000     0.0000    -0.0310     0.0000    -0.8000     0.0000   -80.0000    -0.0016     0.0005     0.0403    -0.8000    13.0000     5.5000     5.5000    15.0000    -1.0055     1.5000   675.0000    10.0000   674.994
     72    11.5500     45.000  15577.000  51368.000    112.000    134.000    132.000    166.000    132.000    123.000    172.000    126.000    136.000    175.000    188.000    114.000    176.000    118.000    118.000    124.000    149.000    174.000    155.000    233.000    137.000    182.000    127.000    155.000    122.000     95.000    147.000    105.000    132.000    119.000    123.000    154.000    143.000    166.000    194.000    139.000    218.000    142.000    141.000    129.000    188.000    125.000    307.000  44921.000     0.0000     0.0000    -0.0310     0.0000    -0.8000     0.0000   -80.0000    -0.0016     0.0005     0.0403    -0.8000    13.0000     5.5000     5.5000    15.0000    -1.0055     1.5000   675.0000    10.0000   675.006
     73    11.6000     45.000  15597.000  51444.000    113.000    135.000    140.000    192.000    139.000    113.000    166.000    110.000    145.000    163.000    186.000    137.000    158.000     89.000    107.000    137.000    139.000    181.000    196.000    214.000    121.000    185.000    123.000    143.000    106.000     91.000    156.000    124.000    129.000    126.000    152.000    172.000    174.000    142.000    221.000    121.000    236.000    153.000    136.000    128.000    194.000    169.000    281.000  44901.000     0.0000     0.0000    -0.0310     0.0000    -0.8000     0.0000   -80.0000    -0.0016     0.0005     0.0403    -0.8000    13.0000     5.5000     5.5000    15.0000    -1.0055     1.5000   675.0000    10.0000   674.995
     74    11.6500     45.000  15365.000  51458.000     92.000    105.000    129.000    182.000    133.000    121.000    181.000    109.000    132.000    160.000    222.000    126.000    151.000    109.000    117.000    105.000    143.000    190.000    228.000    208.000    129.000    166.000    130.000    178.000    125.000     93.000    140.000    119.000    121.000    139.000    163.000    147.000    151.000    166.000    200.000    141.000    207.000    163.000    152.000    134.000    184.000    136.000    330.000  44901.000     0.0000     0.0000    -0.0310     0.0000    -0.8000     0.0000   -80.0000    -0.0016     0.0005     0.0403    -0.8000    13.0000     5.5000     5.5000    15.0000    -1.0055     1.5000   675.0000    10.0000   675.007
     75    11.7000     45.000  15220.000  51509.000    109.000    126.000    134.000    184.000    134.000    119.000    202.000    109.000    147.000    147.000    227.000    129.000    157.000     91.000    144.000    143.000    148.000    176.000    229.000    193.000    122.000    157.000    121.000    189.000    120.000     95.000    133.000    113.000    131.000    110.000    195.000    148.000    146.000    165.000    188.000    126.000    200.000    140.000    158.000    111.000    234.000    155.000    283.000  44921.000     0.0000     0.0000    -0.0310     0.0000    -0.8000     0.0000   -80.0000    -0.0016     0.0005     0.0403    -0.8000    13.0000     5.5000     5.5000    15.0000    -1.0055     1.5000   675.0000    10.0000   675.015
     76    11.7500     45.000  15344.000  51576.000    130.000    138.000    130.000    159.000    135.000    129.000    201.000    112.000    136.000    139.000    220.000    135.000    135.000     97.000    118.000    131.000    141.000    167.000    248.000    187.000    141.000    175.000    132.000    174.000    125.000     97.000    139.000    128.000    105.000    131.000    202.000    168.000    142.000    170.000    194.000    153.000    236.000    131.000    172.000    116.000    208.000    128.000    320.000  44901.000     0.0000     0.0000    -0.0310     0.0000    -0.8000     0.0000   -80.0000    -0.0016     0.0005     0.0403    -0.8000    13.0000     5.5000     5.5000    15.0000    -1.0055     1.5000   675.0000    10.0000   675.017
     77    11.8000     45.000  15324.000  51585.000    130.000    120.000    128.000    162.000    134.000    123.000    215.000    103.000    135.000    118.000    243.000    168.000    124.000     92.000    111.000    119.000    155.000    160.000    258.000    198.000    149.000    168.000    122.000    205.000    111.000     90.000    143.000    110.000    137.000    110.000    194.000    155.000    168.000    161.000    205.000    139.000    209.000    165.000    156.000    109.000    233.000    132.000    296.000  44922.000     0.0000     0.0000    -0.0310     0.0000    -0.8000     0.0000   -80.0000    -0.0016     0.0005     0.0403    -0.8000    13.0000     5.5000     5.5000    15.0000    -1.0055     1.5000   675.0000    10.0000   674.982
     78    11.8500     45.000  15468.000  51093.000    111.000    120.000    132.000    154.000    136.000    127.000    226.000    105.000    133.000    119.000    221.000    144.000    108.000    107.000     97.000    142.000    152.000    118.000    247.000    173.000    122.000    161.000    106.000    214.000    110.000    107.000    134.000    116.000    141.000    117.000    179.000    158.000    144.000    139.000    199.000    119.000    175.000    148.000    157.000     95.000    216.000    163.000    299.000  44702.000     0.0000     0.0000    -0.0310     0.0000    -0.8000     0.0000   -80.0000    -0.0016     0.0005     0.0403    -0.8000    13.0000     5.5000     5.5000    15.0000    -1.0055     1.5000   675.0000    10.0000   675.007
     79    11.9000     45.000  15395.000  51454.000    111.000    118.000    122.000    141.000    140.000    139.000    179.000    103.000    151.000    157.000    194.000    177.000    120.000     98.000    133.000    128.000    170.000    127.000    200.000    179.000    133.000    175.000    133.000    185.000    127.000     93.000    115.000    126.000    144.000    129.000    193.000    172.000    138.000    143.000    199.000    117.000    175.000    160.000    160.000    129.000    213.000    157.000    330.000  44921.000     0.0000     0.0000    -0.0310     0.0000    -0.8000     0.0000   -80.0000    -0.0016     0.0005     0.0403    -0.8000    13.0000     5.5000     5.5000    15.0000    -1.0055     1.5000   675.0000    10.0000   674.995
     80    11.9500     45.000  15260.000  51184.000    133.000    111.000    141.000    148.000    118.000    101.000    196.000    120.000    139.000    122.000    159.000    164.000    122.000    119.000    136.000    142.000    153.000    102.000    187.000    165.000    156.000    139.000    125.000    202.000    131.000     87.000    119.000    117.000    132.000    134.000    232.000    161.000    155.000    128.000    189.000    142.000    185.000    167.000    129.000    115.000    176.000    157.000    327.000  44801.000     0.0000     0.0000    -0.0310     0.0000    -0.8000     0.0000   -80.0000    -0.0016     0.0005     0.0403    -0.8000    13.0000     5.5000     5.5000    15.0000    -1.0055     1.5000   675.0000    10.0000   674.990
     81    12.0000     45.000  15032.000  51004.000    138.000    129.000    137.000    143.000    113.000    130.000    152.000    113.000    149.000    119.000    165.000    141.000    136.000     83.000    131.000    135.000    179.000    122.000    176.000    144.000    133.000    164.000    123.000    202.000    104.000    100.000    127.000    119.000    133.000    128.000    191.000    150.000    145.000    154.000    189.000    159.000    201.000    144.000    140.000    118.000    186.000    144.000    293.000  44722.000     0.0000     0.0000    -0.0310     0.0000    -0.8000     0.0000   -80.0000    -0.0016     0.0005     0.0403    -0.8000    13.0000     5.5000     5.5000    15.0000    -1.0055     1.5000   675.0000    10.0000   674.998
     82    12.0500     45.000  15384.000  51174.000    142.000    132.000    156.000    148.000    134.000     94.000    136.000    146.000    111.000    137.000    178.000    145.000    127.000     97.000    113.000    182.000    199.000    120.000    146.000    127.000    159.000    130.000    136.000    179.000    115.000     97.000    119.000    125.000    130.000    134.000    217.000    137.000    153.000    135.000    165.000    122.000    177.000    145.000    158.000    121.000    180.000    152.000    297.000  44921.000     0.0000     0.0000    -0.0310     0.0000    -0.8000     0.0000   -80.0000    -0.0016     0.0005     0.0403    -0.8000    13.0000     5.5000     5.5000    15.0000    -1.0055     1.5000   675.0000    10.0000   674.994
     83    12.1000     45.000  15556.000  50908.000    149.000    122.000    129.000    145.000    118.000    116.000    110.000    189.000    119.000    158.000    137.000    171.000    122.000     82.000    123.000    172.000    187.000    137.000    152.000    150.000    143.000    134.000    109.000    179.000    128.000     86.000    132.000    137.000    137.000    120.000    201.000    139.000    162.000    129.000    171.000    113.000    177.000    150.000    121.000    116.000    184.000    140.000    310.000  44702.000     0.0000     0.0000    -0.0310     0.0000    -0.8000     0.0000   -80.0000    -0.0016     0.0005     0.0403    -0.8000    13.0000     5.5000     5.5000    15.0000    -1.0055     1.5000   675.0000    10.0000   674.992
     84    12.1500     45.000  15608.000  51217.000    161.000    126.000    139.000    157.000    130.000     94.000    108.000    186.000    140.000    170.000    153.000    153.000    141.000    101.000    130.000    196.000    220.000    142.000    136.000    114.000    146.000    148.000    130.000    150.000    129.000     63.000    121.000    129.000    163.000    124.000    183.000    142.000    125.000    137.000    186.000     98.000    176.000    153.000    130.000    110.000    193.000    150.000    313.000  44921.000     0.0000     0.0000    -0.0310     0.0000    -0.8000     0.0000   -80.0000    -0.0016     0.0005     0.0403    -0.8000    13.0000     5.5000     5.5000    15.0000    -1.0055     1.5000   675.0000    10.0000   675.004
     85    12.2000     45.000  15331.000  51073.000    162.000    127.000    147.000    149.000    149.000     93.000    126.000    278.000    113.000    162.000    135.000    150.000    130.000    115.000    125.000    217.000    237.000    152.000    127.000     99.000    148.000    104.000    121.000    149.000    110.000     96.000    109.000    137.000    159.000    122.000    188.000    151.000    147.000    146.000    181.000    125.000    163.000    138.000    146.000    119.000    172.000    130.000    317.000  44702.000     0.0000     0.0000    -0.0310     0.0000    -0.8000     0.0000   -80.0000    -0.0016     0.0005     0.0403    -0.8000    13.0000     5.5000     5.5000    15.0000    -1.0055     1.5000   675.0000    10.0000   674.992
     86    12.2500     45.000  15168.000  51186.000    197.000    135.000    140.000    178.000    144.000    110.000    105.000    299.000    132.000    192.000    157.000    150.000    142.000     97.000    123.000    201.000    276.000    135.000    127.000    114.000    149.000    123.000    118.000    154.000    104.000     74.000    118.000    127.000    160.000    139.000    158.000    128.000    165.000    129.000    163.000    140.000    158.000    150.000    138.000    104.000    187.000    149.000    295.000  44702.000     0.0000     0.0000    -0.0310     0.0000    -0.8000     0.0000   -80.0000    -0.0016     0.0005     0.0403    -0.8000    13.0000     5.5000     5.5000    15.0000    -1.0055     1.5000   675.0000    10.0000   675.008
     87    12.3000     45.000  15198.000  51435.000    219.000    123.000    131.000    193.000    129.000    107.000    121.000    289.000    150.000    199.000    175.000    169.000    127.000     99.000    120.000    218.000    312.000    153.000    128.000    116.000    158.000    140.000    112.000    127.000    115.000     83.000    111.000    144.000    170.000    106.000    181.000    159.000    157.000    131.000    159.000    122.000    165.000    146.000    139.000    128.000    205.000    174.000    303.000  44722.000     0.0000     0.0000    -0.0310     0.0000    -0.8000     0.0000   -80.0000    -0.0016     0.0005     0.0403    -0.8000    13.0000     5.5000     5.5000    15.0000    -1.0055     1.5000   675.0000    10.0000   674.991
     88    12.3500     45.000  15203.000  51584.000    243.000    132.000    167.000    203.000    145.000    102.000     93.000    267.000    130.000    241.000    127.000    188.000    132.000     88.000    136.000    220.000    322.000    160.000    155.000    102.000    121.000    127.000    133.000    130.000    106.000     80.000    131.000    159.000    166.000    130.000    169.000    112.000    140.000    146.000    155.000    119.000    174.000    164.000    130.000    117.000    199.000    141.000    281.000  44901.000     0.0000     0.0000    -0.0310     0.0000    -0.8000     0.0000   -80.0000    -0.0016     0.0005     0.0403    -0.8000    13.0000     5.5000     5.5000    15.0000    -1.0055     1.5000   675.0000    10.0000   675.005
     89    12.4000     45.000  15341.000  51762.000    225.000    115.000    185.000    239.000    178.000     96.000    108.000    240.000    183.000    252.000    150.000    225.000    145.000     96.000    122.000    198.000    285.000    184.000    159.000    111.000    142.000    121.000    124.000    128.000    123.000    105.000    117.000    174.000    180.000    130.000    151.000    120.000    143.000    127.000    159.000    133.000    161.000    146.000    144.000    113.000    190.000    143.000    271.000  44921.000     0.0000     0.0000    -0.0310     0.0000    -0.8000     0.0000   -80.0000    -0.0016     0.0005     0.0403    -0.8000    13.0000     5.5000     5.5000    15.0000    -1.0055     1.5000   675.0000    10.0000   674.989
     90    12.4500     45.000  15460.000  51411.000    236.000    109.000    153.000    237.000    152.000    116.000     97.000    188.000    153.000    272.000    109.000    244.000    132.000     96.000    133.000    188.000    293.000    209.000    135.000    119.000    138.000    131.000    136.000    158.000    112.000     91.000    115.000    169.000    193.000    133.000    154.000    126.000    139.000    146.000    143.000    122.000    148.000    177.000    106.000    118.000    173.000    149.000    261.000  44702.000     0.0000     0.0000    -0.0310     0.0000    -0.8000     0.0000   -80.0000    -0.0016     0.0005     0.0403    -0.8000    13.0000     5.5000     5.5000    15.0000    -1.0055     1.5000   675.0000     0.0000   675.003
     91    12.5000     45.000  15399.000  51519.000    286.000    130.000    180.000    291.000    174.000    104.000    115.000    145.000    194.000    257.000    119.000    292.000    100.000     94.000    116.000    161.000    281.000    224.000    155.000    120.000    141.000    121.000    141.000    141.000    110.000     91.000    121.000    160.000    187.000    121.000    139.000    116.000    161.000    146.000    126.000    142.000    156.000    169.000    132.000    102.000    153.000    147.000    236.000  44722.000     0.0000     0.0000    -0.0310     0.0000    -0.8000     0.0000   -80.0000    -0.0016     0.0005     0.0403    -0.8000    13.0000     5.5000     5.5000    15.0000    -1.0055     1.5000   675.0000    10.0000   675.002
     92    12.5500     45.000  15642.000  51910.000    280.000    151.000    161.000    281.000    164.000    103.000     88.000    133.000    214.000    196.000    138.000    348.000    123.000    101.000    138.000    177.000    263.000    223.000    176.000    134.000    138.000    129.000    136.000    139.000    147.000     71.000    119.000    172.000    220.000    136.000    158.000    147.000    133.000    171.000    141.000    147.000    140.000    142.000    125.000    116.000    184.000    164.000    242.000  44901.000     0.0000     0.0000    -0.0310     0.0000    -0.8000     0.0000   -80.0000    -0.0016     0.0005     0.0403    -0.8000    13.0000     5.5000     5.5000    15.0000    -1.0055     1.5000     0.0000    10.0000   674.987
     93    12.6000     45.000  15385.000  51608.000    293.000    101.000    196.000    270.000    191.000     85.000     91.000    105.000    231.000    203.000    133.000    369.000    101.000     98.000    127.000    141.000    215.000    228.000    185.000    125.000    150.000    119.000    132.000    162.000    128.000    111.000    131.000    183.000    228.000    149.000    126.000    108.000    145.000    165.000    134.000    133.000    140.000    137.000    123.000    131.000    178.000    162.000    223.000  44722.000     0.0000     0.0000    -0.0310     0.0000    -0.8000     0.0000   -80.0000    -0.0016     0.0005     0.0403    -0.8000    13.0000     5.5000     5.5000    15.0000    -1.0055     1.5000   675.0000    10.0000   674.996
     94    12.6500     45.000  15405.000  51787.000    288.000    107.000    163.000    264.000    171.000     92.000    112.000    132.000    265.000    138.000    136.000    416.000    111.000    106.000    119.000    149.000    248.000    184.000    238.000    126.000    131.000    128.000    120.000    180.000    163.000     75.000    109.000    179.000    230.000    137.000    127.000    137.000    140.000    156.000    132.000    120.000    143.000    136.000    121.000    138.000    168.000    152.000    239.000  44861.000     0.0000     0.0000    -0.0310     0.0000    -0.8000     0.0000   -80.0000    -0.0016     0.0005     0.0403    -0.8000    13.0000     5.5000     5.5000    15.0000    -1.0055     1.5000   675.0000    10.0000   675.012
     95    12.7000     45.000  15352.000  51524.000    243.000    134.000    160.000    204.000    155.000    115.000    115.000    108.000    273.000    163.000    113.000    438.000    110.000    102.000    115.000    128.000    243.000    170.000    270.000    120.000    136.000    133.000    108.000    165.000    127.000    100.000    137.000    144.000    226.000    117.000    125.000    136.000    147.000    132.000    166.000    140.000    152.000    142.000    138.000    118.000    177.000    150.000    207.000  44722.000     0.0000     0.0000    -0.0310     0.0000    -0.8000     0.0000   -80.0000    -0.0016     0.0005     0.0403    -0.8000    13.0000     5.5000     5.5000    15.0000    -1.0055     1.5000   675.0000    10.0000   674.990
     96    12.7500     45.000  15458.000  51680.000    190.000    133.000    165.000    191.000    158.000     92.000    120.000    114.000    236.000    140.000    125.000    505.000    117.000    110.000    125.000    152.000    290.000    163.000    341.000    140.000    118.000    135.000    140.000    182.000    164.000     93.000    137.000    148.000    218.000    154.000    130.000    146.000    136.000    138.000    147.000    132.000    133.000    135.000    131.000    129.000    147.000    152.000    226.000  44702.000     0.0000     0.0000    -0.0310     0.0000    -0.8000     0.0000   -80.0000    -0.0016     0.0005     0.0403    -0.8000    13.0000     5.5000     5.5000    15.0000    -1.0055     1.5000   675.0000    10.0000   674.994
     97    12.8000     45.000  15608.000  51768.000    172.000    126.000    182.000    144.000    129.000    103.000    110.000    113.000    241.000    155.000    154.000    458.000    127.000    120.000    122.000    175.000    259.000    145.000    532.000    150.000    133.000    139.000    119.000    170.000    169.000     90.000    136.000    127.000    214.000    125.000    130.000    130.000    132.000    178.000    147.000    152.000    145.000    136.000    107.000    101.000    175.000    169.000    225.000  44702.000     0.0000     0.0000    -0.0310     0.0000    -0.8000     0.0000   -80.0000    -0.0016     0.0005     0.0403    -0.8000    13.0000     5.5000     5.5000    15.0000    -1.0055     1.5000   675.0000    10.0000   674.984
     98    12.8500     45.000  15597.000  51893.000    155.000    115.000    165.000    134.000    145.000    108.000    100.000    111.000    222.000    108.000    135.000    447.000    115.000    143.000    106.000    156.000    341.000    132.000    664.000    138.000    144.000    132.000    123.000    156.000    175.000     92.000    140.000    137.000    210.000    137.000    117.000    128.000    145.000    161.000    135.000    125.000    130.000    140.000    123.000     96.000    178.000    141.000    187.000  44901.000     0.0000     0.0000    -0.0310     0.0000    -0.8000     0.0000   -80.0000    -0.0016     0.0005     0.0403    -0.8000    13.0000     5.5000     5.5000    15.0000    -1.0055     1.5000   675.0000    10.0000   674.997
     99    12.9000     45.000  15219.000  52115.000    121.000    111.000    194.000    144.000    140.000    123.000    137.000    115.000    205.000    128.000    149.000    376.000    110.000    171.000     98.000    143.000    358.000    138.000    800.000    167.000    130.000    121.000    134.000    154.000    172.000     98.000    117.000    122.000    202.000    142.000    153.000    135.000    122.000    167.000    136.000    148.000    127.000    157.000    127.000    125.000    142.000    159.000    196.000  44901.000     0.0000     0.0000    -0.0310     0.0000    -0.8000     0.0000   -80.0000    -0.0016     0.0005     0.0403    -0.8000    13.0000     5.5000     5.5000    15.0000    -1.0055     1.5000   675.0000    10.0000   674.996
    100    12.9500     45.000  15161.000  51973.000    125.000    125.000    190.000    122.000    110.000    109.000    117.000    107.000    224.000    134.000    139.000    324.000    103.000    180.000    111.000    155.000    406.000    127.000    874.000    197.000    112.000    138.000    145.000    153.000    192.000     87.000    133.000    144.000    174.000    140.000    131.000    142.000    137.000    150.000    132.000    123.000    136.000    146.000    145.000    124.000    150.000    149.000    188.000  44723.000     0.0000     0.0000    -0.0310     0.0000    -0.8000     0.0000   -80.0000    -0.0016     0.0005     0.0403    -0.8000    13.0000     5.5000     5.5000    15.0000    -1.0055     1.5000   675.0000    10.0000   674.998
    101    13.0000     45.000  15414.000  52209.000    108.000    129.000    170.000     97.000    123.000     91.000    126.000    109.000    242.000    118.000    133.000    270.000    116.000    169.000    132.000    139.000    371.000    155.000    955.000    192.000    131.000    151.000    138.000    141.000    199.000    102.000    142.000    123.000    178.000    135.000    118.000    150.000    127.000    182.000    140.000    140.000    148.000    167.000    122.000    134.000    161.000    142.000    172.000  44921.000     0.0000     0.0000    -0.0310     0.0000    -0.8000     0.0000   -80.0000    -0.0016     0.0005     0.0403    -0.8000    13.0000     5.5000     5.5000    15.0000    -1.0055     1.5000   675.0000    10.0000   674.999
    102    13.0500     45.000  15256.000  52167.000    133.000    107.000    204.000    121.000     96.000     97.000    116.000    103.000    285.000    132.000    128.000    221.000    104.000    167.000    119.000    133.000    392.000    140.000    889.000    224.000    114.000    145.000    163.000    146.000    201.000    113.000    129.000    115.000    151.000    136.000    138.000    142.000    135.000    166.000    161.000    147.000    151.000    167.000    125.000    110.000    151.000    157.000    172.000  44921.000     0.0000     0.0000    -0.0310     0.0000    -0.8000     0.0000   -80.0000    -0.0016     0.0005     0.0403    -0.8000    13.0000     5.5000     5.5000    15.0000    -1.0055     1.5000   675.0000    10.0000   674.995
    103    13.1000     45.000  15456.000  52197.000    110.000    147.000    196.000    106.000    125.000    115.000    122.000    108.000    352.000    123.000    136.000    163.000    116.000    161.000    120.000    155.000    346.000    137.000    873.000    258.000    141.000    140.000    142.000    140.000    194.000    107.000    130.000    109.000    174.000    122.000    126.000    119.000    141.000    151.000    150.000    134.000    136.000    148.000    136.000    135.000    169.000    159.000    203.000  44922.000     0.0000     0.0000    -0.0310     0.0000    -0.8000     0.0000   -80.0000    -0.0016     0.0005     0.0403    -0.8000    13.0000     5.5000     5.5000    15.0000    -1.0055     1.5000   675.0000    10.0000   675.004
    104    13.1500     45.000  15413.000  51799.000    101.000    119.000    259.000    125.000    104.000    105.000    141.000    124.000    447.000    133.000    127.000    177.000    104.000    126.000    128.000    156.000    291.000    126.000    799.000    277.000    120.000    116.000    135.000    137.000    199.000     93.000    117.000     90.000    153.000    139.000    120.000    126.000    124.000    159.000    130.000    160.000    133.000    149.000    125.000    136.000    125.000    156.000    185.000  44703.000     0.0000     0.0000    -0.0310     0.0000    -0.8000     0.0000   -80.0000    -0.0016     0.0005     0.0403    -0.8000    13.0000     5.5000     5.5000    15.0000    -1.0055     1.5000   675.0000    10.0000   674.997
    105    13.2000     45.000  15443.000  51938.000    121.000    122.000    280.000    103.000    119.000    113.000    164.000    151.000    501.000    134.000    117.000    143.000    104.000    106.000    119.000    152.000    256.000    173.000    679.000    302.000    123.000    159.000    151.000    156.000    198.000     99.000    147.000    119.000    138.000    116.000     95.000    142.000    129.000    166.000    131.000    157.000    154.000    142.000    144.000    118.000    154.000    161.000    178.000  44702.000     0.0000     0.0000    -0.0310     0.0000    -0.8000     0.0000   -80.0000    -0.0016     0.0005     0.0403    -0.8000    13.0000     5.5000     5.5000    15.0000    -1.0055     1.5000   675.0000    10.0000   675.007
    106    13.2500     45.000  15411.000  51717.000    109.000    134.000    272.000    122.000    127.000     97.000    164.000    133.000    630.000    106.000    123.000    150.000    111.000    130.000    149.000    139.000    220.000    142.000    523.000    269.000    141.000    149.000    149.000    157.000    172.000     97.000    115.000    121.000    137.000    135.000    140.000    126.000    129.000    150.000    114.000    139.000    132.000    148.000    124.000    113.000    158.000    162.000    157.000  44702.000     0.0000     0.0000    -0.0310     0.0000    -0.8000     0.0000   -80.0000    -0.0016     0.0005     0.0403    -0.8000    13.0000     5.5000     5.5000    15.0000    -1.0055     1.5000   675.0000    10.0000   674.983
    107    13.3000     45.000  15518.000  51796.000    111.000    121.000    270.000    112.000    136.000    105.000    200.000    198.000    599.000    137.000    137.000    131.000    119.000    113.000    122.000    136.000    224.000    174.000    363.000    241.000    143.000    156.000    176.000    158.000    174.000    108.000    131.000     97.000    136.000    150.000    119.000    143.000    143.000    137.000    121.000    154.000    139.000    125.000    152.000    150.000    175.000    163.000    175.000  44722.000     0.0000     0.0000    -0.0310     0.0000    -0.8000     0.0000   -80.0000    -0.0016     0.0005     0.0403    -0.8000    13.0000     5.5000     5.5000    15.0000    -1.0055     1.5000   675.0000    10.0000   675.007
    108    13.3500     45.000  15372.000  51876.000     96.000    116.000    350.000    111.000    105.000     99.000    220.000    221.000    611.000    125.000    167.000    144.000    146.000    109.000    106.000    127.000    206.000    149.000    297.000    232.000    128.000    154.000    188.000    148.000    178.000     84.000    149.000    112.000    123.000    123.000    142.000    127.000    113.000    144.000    145.000    159.000    138.000    160.000    142.000    126.000    146.000    154.000    155.000  44901.000     0.0000     0.0000    -0.0310     0.0000    -0.8000     0.0000   -80.0000    -0.0016     0.0005     0.0403    -0.8000    13.0000     5.5000     5.5000    15.0000    -1.0055     1.5000   675.0000    10.0000   675.010
    109    13.4000     45.000  15409.000  51941.000    135.000    111.000    317.000    133.000    122.000    102.000    246.000    279.000    526.000    135.000    169.000    167.000    150.000    110.000    115.000    146.000    174.000    164.000    264.000    184.000    124.000    131.000    195.000    154.000    161.000     98.000    135.000    110.000    135.000    142.000    103.000    135.000    140.000    163.000    156.000    152.000    141.000    137.000    153.000    120.000    158.000    173.000    175.000  44901.000     0.0000     0.0000    -0.0310     0.0000    -0.8000     0.0000   -80.0000    -0.0016     0.0005     0.0403    -0.8000    13.0000     5.5000     5.5000    15.0000    -1.0055     1.5000   675.0000    10.0000   674.999
    110    13.4500     45.000  15374.000  51833.000    128.000    110.000    408.000    111.000    112.000     98.000    257.000    340.000    465.000    150.000    177.000    207.000    123.000    103.000    125.000    123.000    173.000    166.000    186.000    166.000    108.000    132.000    180.000    138.000    163.000    114.000    129.000    100.000    126.000    142.000    125.000    119.000    121.000    139.000    121.000    159.000    131.000    125.000    159.000    124.000    136.000    191.000    202.000  44921.000     0.0000     0.0000    -0.0310     0.0000    -0.8000     0.0000   -80.0000    -0.0016     0.0005     0.0403    -0.8000    13.0000     5.5000     5.5000    15.0000    -1.0055     1.5000   675.0000    10.0000   674.993
    111    13.5000     45.000  15579.000  51679.000    126.000    117.000    427.000    127.000    115.000     98.000    224.000    319.000    361.000    130.000    147.000    211.000    139.000    117.000    119.000    151.000    190.000    140.000    159.000    129.000    132.000    122.000    197.000    136.000    160.000    116.000    106.000    103.000    142.000    122.000    112.000    134.000    133.000    127.000    137.000    185.000    125.000    145.000    157.000    146.000    155.000    173.000    167.000  44901.000     0.0000     0.0000    -0.0310     0.0000    -0.8000     0.0000   -80.0000    -0.0016     0.0005     0.0403    -0.8000    13.0000     5.5000     5.5000    15.0000    -1.0055     1.5000   675.0000    10.0000   675.000
    112    13.5500     45.000  15341.000  51607.000    105.000    144.000    389.000    124.000    110.000    117.000    238.000    347.000    291.000    165.000    199.000    257.000    141.000    105.000    131.000    156.000    176.000    128.000    161.000    142.000    135.000    137.000    181.000    135.000    158.000     92.000    127.000    102.000    137.000    150.000    136.000    133.000    145.000    159.000    144.000    187.000    135.000    133.000    153.000    124.000    160.000    171.000    145.000  44702.000     0.0000     0.0000    -0.0310     0.0000    -0.8000     0.0000   -80.0000    -0.0016     0.0005     0.0403    -0.8000    13.0000     5.5000     5.5000    15.0000    -1.0055     1.5000   675.0000    10.0000   675.007
    113    13.6000     45.000  15347.000  51762.000    122.000    113.000    388.000    127.000    132.000    117.000    244.000    350.000    221.000    164.000    200.000    290.000    117.000    112.000    132.000    151.000    166.000    137.000    148.000    135.000    148.000    132.000    190.000    110.000    151.000     91.000    145.000    129.000    127.000    130.000    127.000    127.000    127.000    157.000    137.000    194.000    146.000    133.000    141.000    119.000    165.000    176.000    193.000  44901.000     0.0000     0.0000    -0.0310     0.0000    -0.8000     0.0000   -80.0000    -0.0016     0.0005     0.0403    -0.8000    13.0000     5.5000     5.5000    15.0000    -1.0055     1.5000   675.0000    10.0000   674.988
    114    13.6500     45.000  15264.000  51528.000    116.000    118.000    317.000    131.000    113.000    110.000    200.000    271.000    221.000    175.000    209.000    276.000    108.000    109.000    127.000    165.000    199.000    111.000    173.000    151.000    132.000    143.000    187.000    147.000    119.000     79.000    118.000    109.000    123.000    136.000    126.000    130.000    135.000    117.000    143.000    211.000    147.000    151.000    154.000    113.000    131.000    176.000    180.000  44921.000     0.0000     0.0000    -0.0310     0.0000    -0.8000     0.0000   -80.0000    -0.0016     0.0005     0.0403    -0.8000    13.0000     5.5000     5.5000    15.0000    -1.0055     1.5000   675.0000    10.0000   674.985
    115    13.7000     45.000  15601.000  51464.000    111.000    116.000    262.000    133.000    134.000     94.000    189.000    249.000    197.000    176.000    178.000    271.000    119.000    109.000    111.000    159.000    215.000    112.000    202.000    114.000    136.000    130.000    185.000    136.000    129.000     83.000    137.000    129.000    119.000    135.000    118.000    137.000    117.000    150.000    152.000    188.000    141.000    158.000    169.000    138.000    144.000    204.000    157.000  44921.000     0.0000     0.0000    -0.0310     0.0000    -0.8000     0.0000   -80.0000    -0.0016     0.0005     0.0403    -0.8000    13.0000     5.5000     5.5000    15.0000    -1.0055     1.5000   675.0000    10.0000   674.995
    116    13.7500     45.000  15446.000  51133.000    121.000    102.000    213.000    117.000    134.000    117.000    155.000    210.000    150.000    197.000    173.000    225.000    134.000    113.000    135.000    184.000    182.000    123.000    203.000    124.000    139.000    123.000    154.000    116.000    133.000     89.000    143.000    125.000    142.000    145.000    135.000    121.000    116.000    138.000    157.000    211.000    146.000    166.000    156.000    151.000    164.000    178.000    171.000  44702.000     0.0000     0.0000    -0.0310     0.0000    -0.8000     0.0000   -80.0000    -0.0016     0.0005     0.0403    -0.8000    13.0000     5.5000     5.5000    15.0000    -1.0055     1.5000   675.0000    10.0000   674.988
    117    13.8000     45.000  15323.000  51239.000    119.000    117.000    162.000    138.000    110.000    110.000    151.000    172.000    186.000    192.000    137.000    227.000    129.000    132.000    108.000    184.000    189.000    123.000    198.000    146.000    120.000    129.000    152.000    115.000    134.000     90.000    116.000    117.000    133.000    158.000    141.000    135.000    134.000    170.000    150.000    214.000    128.000    145.000    166.000    148.000    154.000    179.000    160.000  44921.000     0.0000     0.0000    -0.0310     0.0000    -0.8000     0.0000   -80.0000    -0.0016     0.0005     0.0403    -0.8000    13.0000     5.5000     5.5000    15.0000    -1.0055     1.5000   675.0000    10.0000   674.998
    118    13.8500     45.000  15276.000  51156.000     97.000    100.000    153.000     99.000    103.000    122.000    165.000    190.000    183.000    194.000    136.000    215.000    140.000    120.000    120.000    160.000    179.000    118.000    247.000    142.000    160.000    112.000    133.000    121.000    127.000    102.000    125.000    138.000    139.000    129.000    151.000    136.000    134.000    170.000    138.000    201.000    140.000    152.000    162.000    146.000    130.000    184.000    142.000  44901.000     0.0000     0.0000    -0.0310     0.0000    -0.8000     0.0000   -80.0000    -0.0016     0.0005     0.0403    -0.8000    13.0000     5.5000     5.5000    15.0000    -1.0055     1.5000   675.0000    10.0000   674.988
    119    13.9000     45.000  15378.000  51199.000    122.000    120.000    163.000    121.000    125.000    112.000    145.000    186.000    175.000    161.000    110.000    171.000    131.000    159.000    127.000    175.000    185.000     99.000    240.000    144.000    137.000    141.000    137.000    131.000    118.000    100.000    117.000    125.000    149.000    122.000    127.000    144.000    148.000    171.000    147.000    256.000    142.000    158.000    138.000    122.000    145.000    220.000    132.000  44901.000     0.0000     0.0000    -0.0310     0.0000    -0.8000     0.0000   -80.0000    -0.0016     0.0005     0.0403    -0.8000    13.0000     5.5000     5.5000    15.0000    -1.0055     1.5000   675.0000    10.0000   675.005
    120    13.9500     45.000  15596.000  51028.000    122.000    133.000    135.000    126.000    110.000    121.000    147.000    199.000    159.000    178.000    118.000    146.000    130.000    189.000    119.000    186.000    167.000    141.000    239.000    126.000    150.000    123.000    121.000    129.000    127.000     85.000    134.000    131.000    144.000    124.000    115.000    130.000    160.000    179.000    147.000    201.000    138.000    173.000    144.000    136.000    164.000    225.000    155.000  44702.000     0.0000     0.0000    -0.0310     0.0000    -0.8000     0.0000   -80.0000    -0.0016     0.0005     0.0403    -0.8000    13.0000     5.5000     5.5000    15.0000    -1.0055     1.5000   675.0000    10.0000   675.009
    121    14.0000     45.000  15201.000  51092.000    115.000    103.000    138.000    133.000    126.000    133.000    164.000    198.000    178.000    180.000    125.000    175.000    114.000    168.000    140.000    171.000    154.000    126.000    278.000    117.000    165.000    120.000    124.000    140.000    102.000     97.000    117.000    135.000    128.000    122.000    127.000    133.000    140.000    182.000    140.000    226.000    153.000    151.000    166.000    130.000    151.000    217.000    168.000  44722.000     0.0000     0.0000    -0.0310     0.0000    -0.8000     0.0000   -80.0000    -0.0016     0.0005     0.0403    -0.8000    13.0000     5.5000     5.5000    15.0000    -1.0055     1.5000   675.0000    10.0000   675.015
# Sum of Counts = 1862401
# Center of Mass = 10.999510+/-0.011470
# Full Width Half-Maximum = 3.492961+/-0.002989
# 9:08:57 AM  8/18/2016   scan completed.
