# scan = 48
# date = 8/18/2016
# time = 7:59:27 PM
# proposal = IPTS-16819
# experiment = Investing the magnetic structure and moment of BaFe4O7 and K-doped
# experiment_number = 500
# command = scan 2theta 32 38 0.05 preset time 45
# builtin_command = scan 2theta 32 38 0.05 preset time 45
# users = Hans-Conrad Zur Loye
# local_contact = Stuart Calder
# scan_title = KBaFe4O7, Zur Loye, Ge115, op-21-12, T= 75 C - After heating
# monochromator = 
# analyzer = 
# sense = -+-
# collimation = 48-40-40-120
# samplename = BaFe4O7 and K1.15Ba0.43Fe2O7
# sampletype = powder
# samplemosaic = 30.000000
# latticeconstants = 5.000000,5.000000,5.000000,90.000000,90.000000,90.000000
# ubmatrix = 0.000000,0.000000,0.000000,0.000000,0.000000,0.000000,0.000000,0.000000,0.000000
# mode = 3
# ubconf = UB15Aug2016_102130AM.ini
# preset_type = normal 
# preset_channel = time
# preset_value = 45.000000
# def_x = 2theta
# def_y = monitor
# col_headers = 
#   Pt.     2theta       time    monitor   detector     anode1     anode2     anode3     anode4     anode5     anode6     anode7     anode8     anode9    anode10    anode11    anode12    anode13    anode14    anode15    anode16    anode17    anode18    anode19    anode20    anode21    anode22    anode23    anode24    anode25    anode26    anode27    anode28    anode29    anode30    anode31    anode32    anode33    anode34    anode35    anode36    anode37    anode38    anode39    anode40    anode41    anode42    anode43    anode44         m1       marc     mtrans   coltrans     colrot       coll   pgfilter  colltrans         s1        sgl        sgu    slit_bt    slit_lf    slit_rt    slit_tp        stl        stu furnace_setpoint furnace_ramp furnace_temp
      1    32.0000     45.000  15201.000  52002.000    114.000    240.000    158.000    147.000    569.000     90.000    165.000     89.000    140.000    262.000    220.000    139.000    127.000    117.000    135.000    120.000    197.000    116.000    106.000     87.000    160.000    158.000    108.000    232.000     97.000    107.000    130.000    198.000    131.000    291.000    142.000    169.000    165.000    174.000    135.000    179.000    187.000    158.000    158.000    123.000    166.000    219.000    156.000  44921.000     0.0000     0.0000    -0.0310     0.0000    -0.8000     0.0000   -80.0000    -0.0016     0.0005     0.0403    -0.8000    13.0000     5.5000     5.5000    15.0000    -1.0055     1.5000    75.0000     1.0000    77.440
      2    32.0500     45.000  15374.000  51660.000     89.000    237.000    126.000    125.000    611.000     90.000    198.000    107.000    129.000    313.000    165.000    160.000    145.000    132.000    126.000    115.000    203.000    124.000     84.000    101.000    147.000    148.000    103.000    256.000    114.000    105.000    132.000    198.000    100.000    278.000    120.000    143.000    133.000    179.000    112.000    178.000    191.000    149.000    143.000    125.000    168.000    217.000    139.000  44702.000     0.0000     0.0000    -0.0310     0.0000    -0.8000     0.0000   -80.0000    -0.0016     0.0005     0.0403    -0.8000    13.0000     5.5000     5.5000    15.0000    -1.0055     1.5000    75.0000     1.0000    78.012
      3    32.1000     45.000  15456.000  51916.000    121.000    204.000    117.000    142.000    562.000     83.000    172.000    101.000    157.000    351.000    174.000    179.000    160.000    114.000    122.000    117.000    189.000    124.000    110.000    106.000    154.000    150.000     94.000    237.000    101.000     98.000    121.000    189.000    128.000    253.000    143.000    147.000    171.000    193.000    133.000    224.000    189.000    154.000    134.000    108.000    154.000    187.000    148.000  44901.000     0.0000     0.0000    -0.0310     0.0000    -0.8000     0.0000   -80.0000    -0.0016     0.0005     0.0403    -0.8000    13.0000     5.5000     5.5000    15.0000    -1.0055     1.5000    75.0000     1.0000    78.540
      4    32.1500     45.000  15481.000  51786.000    115.000    183.000    112.000    148.000    495.000     98.000    202.000     86.000    150.000    310.000    181.000    221.000    187.000    135.000    134.000    124.000    220.000    132.000     85.000     94.000    173.000    152.000     78.000    235.000    130.000     89.000    129.000    200.000    128.000    265.000    130.000    138.000    142.000    207.000    125.000    205.000    163.000    158.000    139.000    126.000    155.000    223.000    162.000  44722.000     0.0000     0.0000    -0.0310     0.0000    -0.8000     0.0000   -80.0000    -0.0016     0.0005     0.0403    -0.8000    13.0000     5.5000     5.5000    15.0000    -1.0055     1.5000    75.0000     1.0000    79.033
      5    32.2000     45.000  15474.000  51623.000    127.000    175.000    118.000    128.000    387.000     82.000    225.000    101.000    121.000    347.000    153.000    245.000    189.000    127.000    138.000    122.000    232.000    129.000    102.000     86.000    153.000    149.000     95.000    243.000    108.000    105.000    140.000    187.000    100.000    216.000    131.000    129.000    149.000    185.000    114.000    181.000    194.000    156.000    142.000    125.000    163.000    213.000    129.000  44782.000     0.0000     0.0000    -0.0310     0.0000    -0.8000     0.0000   -80.0000    -0.0016     0.0005     0.0403    -0.8000    13.0000     5.5000     5.5000    15.0000    -1.0055     1.5000    75.0000     1.0000    79.464
      6    32.2500     45.000  15606.000  52013.000    150.000    209.000     92.000    133.000    308.000     95.000    205.000     95.000    130.000    402.000    145.000    363.000    253.000    114.000    134.000    119.000    210.000    151.000     84.000     95.000    176.000    135.000    115.000    208.000    115.000    117.000     94.000    164.000    144.000    254.000    130.000    125.000    139.000    200.000    132.000    251.000    180.000    152.000    144.000    110.000    140.000    219.000    161.000  44921.000     0.0000     0.0000    -0.0310     0.0000    -0.8000     0.0000   -80.0000    -0.0016     0.0005     0.0403    -0.8000    13.0000     5.5000     5.5000    15.0000    -1.0055     1.5000    75.0000     1.0000    79.857
      7    32.3000     45.000  15341.000  52081.000    165.000    250.000    100.000    114.000    247.000     76.000    158.000     94.000    136.000    416.000    145.000    454.000    323.000     95.000    128.000    125.000    212.000    162.000    105.000    102.000    165.000    196.000    101.000    211.000     98.000     98.000    117.000    175.000    119.000    207.000    123.000    112.000    142.000    215.000    130.000    221.000    184.000    134.000    155.000    134.000    166.000    220.000    150.000  44901.000     0.0000     0.0000    -0.0310     0.0000    -0.8000     0.0000   -80.0000    -0.0016     0.0005     0.0403    -0.8000    13.0000     5.5000     5.5000    15.0000    -1.0055     1.5000    75.0000     1.0000    80.212
      8    32.3500     45.000  15217.000  52371.000    235.000    322.000    111.000     94.000    242.000     79.000    169.000     85.000    153.000    445.000    117.000    574.000    338.000    114.000    108.000    125.000    208.000    155.000     95.000    115.000    155.000    198.000     97.000    195.000    118.000    100.000    127.000    181.000    135.000    237.000    117.000    141.000    143.000    192.000    126.000    223.000    188.000    142.000    148.000     97.000    166.000    186.000    154.000  44921.000     0.0000     0.0000    -0.0310     0.0000    -0.8000     0.0000   -80.0000    -0.0016     0.0005     0.0403    -0.8000    13.0000     5.5000     5.5000    15.0000    -1.0055     1.5000    75.0000     1.0000    80.514
      9    32.4000     45.000  15113.000  52430.000    224.000    368.000    115.000    127.000    187.000     90.000    134.000     99.000    143.000    435.000    146.000    730.000    378.000     91.000    118.000    110.000    197.000    194.000    107.000     94.000    186.000    221.000     93.000    167.000    105.000    114.000    103.000    163.000     98.000    208.000    152.000    122.000    144.000    236.000    141.000    282.000    184.000    140.000    130.000    113.000    176.000    199.000    144.000  44722.000     0.0000     0.0000    -0.0310     0.0000    -0.8000     0.0000   -80.0000    -0.0016     0.0005     0.0403    -0.8000    13.0000     5.5000     5.5000    15.0000    -1.0055     1.5000    75.0000     1.0000    80.783
     10    32.4500     45.000  15300.000  52651.000    333.000    516.000     93.000    120.000    169.000     98.000    126.000     87.000    121.000    426.000    114.000    881.000    347.000     96.000    121.000    138.000    203.000    184.000    109.000     84.000    175.000    230.000     98.000    160.000    142.000    106.000     95.000    161.000    123.000    220.000    146.000    121.000    141.000    202.000    123.000    267.000    162.000    151.000    138.000    129.000    159.000    207.000    127.000  44702.000     0.0000     0.0000    -0.0310     0.0000    -0.8000     0.0000   -80.0000    -0.0016     0.0005     0.0403    -0.8000    13.0000     5.5000     5.5000    15.0000    -1.0055     1.5000    75.0000     1.0000    80.995
     11    32.5000     45.000  15501.000  53042.000    335.000    577.000    109.000    131.000    169.000    108.000    129.000     83.000    139.000    431.000    139.000   1039.000    337.000    101.000    107.000    149.000    180.000    203.000     85.000    108.000    157.000    237.000    121.000    150.000    138.000    105.000    120.000    159.000    129.000    193.000    139.000    117.000    145.000    230.000    116.000    279.000    201.000    156.000    139.000    117.000    158.000    196.000    159.000  44722.000     0.0000     0.0000    -0.0310     0.0000    -0.8000     0.0000   -80.0000    -0.0016     0.0005     0.0403    -0.8000    13.0000     5.5000     5.5000    15.0000    -1.0055     1.5000    75.0000     1.0000    81.147
     12    32.5500     45.000  15267.000  53633.000    375.000    646.000    101.000    180.000    177.000    115.000    110.000    105.000    143.000    392.000    153.000   1201.000    331.000     87.000    149.000    135.000    195.000    234.000    107.000    110.000    167.000    226.000    105.000    141.000    114.000     98.000    124.000    158.000    119.000    232.000    139.000    134.000    151.000    200.000    133.000    331.000    179.000    146.000    152.000    118.000    204.000    171.000    143.000  44902.000     0.0000     0.0000    -0.0310     0.0000    -0.8000     0.0000   -80.0000    -0.0016     0.0005     0.0403    -0.8000    13.0000     5.5000     5.5000    15.0000    -1.0055     1.5000    75.0000     1.0000    81.279
     13    32.6000     45.000  15335.000  53332.000    413.000    604.000    116.000    158.000    187.000     97.000    107.000     85.000    131.000    357.000    125.000   1215.000    278.000     86.000    105.000    136.000    184.000    220.000     78.000     94.000    139.000    235.000     92.000    146.000    150.000     88.000    135.000    145.000    146.000    175.000    125.000    115.000    132.000    242.000    110.000    325.000    203.000    151.000    138.000    105.000    156.000    195.000    187.000  44921.000     0.0000     0.0000    -0.0310     0.0000    -0.8000     0.0000   -80.0000    -0.0016     0.0005     0.0403    -0.8000    13.0000     5.5000     5.5000    15.0000    -1.0055     1.5000    75.0000     1.0000    81.395
     14    32.6500     45.000  15546.000  53233.000    336.000    553.000     96.000    183.000    201.000    117.000    117.000     78.000    137.000    286.000    134.000   1205.000    247.000     96.000    118.000    141.000    199.000    212.000    106.000    111.000    158.000    296.000    117.000    112.000    121.000     80.000    137.000    154.000    122.000    172.000    127.000    114.000    146.000    219.000    133.000    294.000    216.000    132.000    121.000    132.000    170.000    212.000    153.000  44922.000     0.0000     0.0000    -0.0310     0.0000    -0.8000     0.0000   -80.0000    -0.0016     0.0005     0.0403    -0.8000    13.0000     5.5000     5.5000    15.0000    -1.0055     1.5000    75.0000     1.0000    81.470
     15    32.7000     45.000  15193.000  53203.000    315.000    493.000    122.000    204.000    261.000     87.000    126.000     83.000    108.000    244.000    141.000   1148.000    214.000    116.000    151.000    128.000    201.000    262.000    106.000    115.000    126.000    255.000    107.000    114.000    137.000    101.000    128.000    148.000    117.000    181.000    131.000    130.000    135.000    246.000    101.000    356.000    190.000    160.000    138.000    142.000    193.000    184.000    156.000  44902.000     0.0000     0.0000    -0.0310     0.0000    -0.8000     0.0000   -80.0000    -0.0016     0.0005     0.0403    -0.8000    13.0000     5.5000     5.5000    15.0000    -1.0055     1.5000    75.0000     1.0000    81.519
     16    32.7500     45.000  15479.000  52581.000    274.000    401.000    124.000    219.000    270.000    118.000    103.000     96.000    139.000    219.000    133.000    909.000    200.000     96.000    143.000    142.000    197.000    242.000    105.000    106.000    139.000    269.000    114.000    121.000     93.000    103.000    123.000    156.000    126.000    156.000    129.000    100.000    166.000    209.000    142.000    390.000    202.000    152.000    122.000    128.000    173.000    181.000    128.000  44723.000     0.0000     0.0000    -0.0310     0.0000    -0.8000     0.0000   -80.0000    -0.0016     0.0005     0.0403    -0.8000    13.0000     5.5000     5.5000    15.0000    -1.0055     1.5000    75.0000     1.0000    81.516
     17    32.8000     45.000  15398.000  52210.000    228.000    360.000    118.000    213.000    262.000     88.000    131.000     84.000    165.000    203.000    129.000    763.000    172.000     99.000    126.000    146.000    169.000    217.000     84.000    117.000    139.000    240.000    122.000    133.000    108.000     97.000    146.000    138.000    122.000    162.000    130.000    115.000    147.000    190.000    124.000    404.000    208.000    139.000    126.000    132.000    156.000    168.000    167.000  44723.000     0.0000     0.0000    -0.0310     0.0000    -0.8000     0.0000   -80.0000    -0.0016     0.0005     0.0403    -0.8000    13.0000     5.5000     5.5000    15.0000    -1.0055     1.5000    75.0000     1.0000    81.521
     18    32.8500     45.000  15290.000  51735.000    200.000    241.000    146.000    230.000    274.000     79.000     99.000     82.000    152.000    184.000    134.000    634.000    141.000     68.000    149.000    143.000    174.000    212.000    108.000    103.000    125.000    208.000    111.000    109.000    113.000     89.000    119.000    143.000    119.000    168.000    127.000    126.000    128.000    203.000    125.000    372.000    200.000    154.000    130.000    113.000    153.000    204.000    140.000  44703.000     0.0000     0.0000    -0.0310     0.0000    -0.8000     0.0000   -80.0000    -0.0016     0.0005     0.0403    -0.8000    13.0000     5.5000     5.5000    15.0000    -1.0055     1.5000    75.0000     1.0000    81.489
     19    32.9000     45.000  15430.000  51966.000    214.000    210.000    147.000    219.000    258.000     90.000    111.000     68.000    190.000    203.000    145.000    502.000    135.000     80.000    141.000    145.000    171.000    222.000    100.000    111.000    117.000    214.000    113.000    101.000    119.000    114.000    137.000    152.000    123.000    127.000    137.000    109.000    153.000    208.000    124.000    378.000    235.000    149.000    124.000    139.000    183.000    203.000    144.000  44901.000     0.0000     0.0000    -0.0310     0.0000    -0.8000     0.0000   -80.0000    -0.0016     0.0005     0.0403    -0.8000    13.0000     5.5000     5.5000    15.0000    -1.0055     1.5000    75.0000     1.0000    81.413
     20    32.9500     45.000  15532.000  51742.000    221.000    174.000    146.000    203.000    230.000     95.000    113.000    102.000    167.000    192.000    151.000    382.000    152.000    112.000    153.000    148.000    158.000    219.000    124.000    105.000    122.000    208.000    111.000    108.000    130.000     86.000    149.000    146.000    126.000    129.000    120.000    102.000    150.000    198.000    117.000    390.000    207.000    140.000    117.000    150.000    161.000    169.000    157.000  44902.000     0.0000     0.0000    -0.0310     0.0000    -0.8000     0.0000   -80.0000    -0.0016     0.0005     0.0403    -0.8000    13.0000     5.5000     5.5000    15.0000    -1.0055     1.5000    75.0000     1.0000    81.358
     21    33.0000     45.000  15269.000  51545.000    238.000    176.000    136.000    181.000    225.000     88.000     95.000     96.000    187.000    185.000    118.000    302.000    151.000     91.000    133.000    162.000    172.000    198.000    114.000    118.000    127.000    159.000    121.000     94.000     97.000     90.000    145.000    117.000    129.000    147.000    114.000    120.000    141.000    208.000    138.000    375.000    211.000    121.000    132.000    127.000    192.000    188.000    164.000  44922.000     0.0000     0.0000    -0.0310     0.0000    -0.8000     0.0000   -80.0000    -0.0016     0.0005     0.0403    -0.8000    13.0000     5.5000     5.5000    15.0000    -1.0055     1.5000    75.0000     1.0000    81.280
     22    33.0500     45.000  15308.000  51538.000    247.000    176.000    124.000    183.000    169.000     91.000    112.000    103.000    206.000    187.000    127.000    265.000    163.000     97.000    126.000    187.000    143.000    180.000    123.000    115.000    111.000    185.000    126.000     96.000    111.000     92.000    120.000    147.000    115.000    135.000    120.000    131.000    142.000    220.000    121.000    367.000    220.000    159.000    148.000    128.000    163.000    200.000    136.000  44921.000     0.0000     0.0000    -0.0310     0.0000    -0.8000     0.0000   -80.0000    -0.0016     0.0005     0.0403    -0.8000    13.0000     5.5000     5.5000    15.0000    -1.0055     1.5000    75.0000     1.0000    81.167
     23    33.1000     45.000  15495.000  51402.000    286.000    182.000    142.000    142.000    171.000     96.000    133.000    113.000    211.000    164.000    154.000    211.000    145.000    102.000    147.000    202.000    142.000    203.000    112.000    107.000    107.000    165.000    113.000    108.000    109.000     98.000    123.000    133.000    127.000    145.000    130.000    129.000    155.000    194.000    130.000    379.000    227.000    133.000    134.000    129.000    147.000    169.000    151.000  44802.000     0.0000     0.0000    -0.0310     0.0000    -0.8000     0.0000   -80.0000    -0.0016     0.0005     0.0403    -0.8000    13.0000     5.5000     5.5000    15.0000    -1.0055     1.5000    75.0000     1.0000    81.067
     24    33.1500     45.000  15453.000  50998.000    249.000    162.000    133.000    126.000    196.000    125.000    120.000    100.000    205.000    175.000    117.000    186.000    129.000     83.000    123.000    188.000    125.000    182.000    111.000    100.000    108.000    150.000    137.000     90.000    101.000     85.000    140.000    133.000    101.000    143.000    107.000    142.000    129.000    174.000    129.000    405.000    202.000    127.000    120.000    136.000    156.000    175.000    151.000  44722.000     0.0000     0.0000    -0.0310     0.0000    -0.8000     0.0000   -80.0000    -0.0016     0.0005     0.0403    -0.8000    13.0000     5.5000     5.5000    15.0000    -1.0055     1.5000    75.0000     1.0000    80.945
     25    33.2000     45.000  15590.000  50885.000    201.000    158.000    113.000    122.000    186.000    129.000    117.000    101.000    170.000    152.000    143.000    173.000    145.000    105.000    123.000    209.000    143.000    175.000    113.000     89.000    117.000    133.000    100.000    109.000    110.000    103.000    141.000    129.000    112.000    142.000    115.000    127.000    137.000    178.000    148.000    361.000    215.000    139.000    135.000    122.000    152.000    167.000    124.000  44702.000     0.0000     0.0000    -0.0310     0.0000    -0.8000     0.0000   -80.0000    -0.0016     0.0005     0.0403    -0.8000    13.0000     5.5000     5.5000    15.0000    -1.0055     1.5000    75.0000     1.0000    80.801
     26    33.2500     45.000  15232.000  51098.000    181.000    137.000    116.000    123.000    188.000    138.000    121.000    111.000    173.000    143.000    137.000    180.000    149.000    111.000    112.000    191.000    132.000    180.000    106.000    104.000    117.000    135.000    118.000    107.000    110.000     88.000    139.000    127.000    112.000    158.000    107.000    125.000    169.000    190.000    141.000    364.000    211.000    124.000    119.000    124.000    181.000    176.000    142.000  44881.000     0.0000     0.0000    -0.0310     0.0000    -0.8000     0.0000   -80.0000    -0.0016     0.0005     0.0403    -0.8000    13.0000     5.5000     5.5000    15.0000    -1.0055     1.5000    75.0000     1.0000    80.646
     27    33.3000     45.000  15364.000  50836.000    148.000    134.000    111.000    111.000    177.000    145.000    117.000    103.000    180.000    142.000    119.000    208.000    152.000    117.000    112.000    233.000    127.000    148.000     95.000     90.000     98.000    139.000    113.000    113.000    126.000     83.000    133.000    113.000    111.000    130.000    126.000    129.000    150.000    170.000    148.000    358.000    199.000    167.000    135.000    119.000    150.000    174.000    161.000  44722.000     0.0000     0.0000    -0.0310     0.0000    -0.8000     0.0000   -80.0000    -0.0016     0.0005     0.0403    -0.8000    13.0000     5.5000     5.5000    15.0000    -1.0055     1.5000    75.0000     1.0000    80.486
     28    33.3500     45.000  15398.000  51156.000    107.000    139.000    143.000    113.000    174.000    143.000    138.000    118.000    175.000    148.000    126.000    199.000    139.000    105.000    128.000    215.000    139.000    133.000    103.000     96.000    117.000    126.000    132.000    116.000    111.000    106.000    126.000    132.000    121.000    124.000    117.000    145.000    165.000    179.000    121.000    427.000    195.000    153.000    124.000    123.000    171.000    182.000    161.000  44901.000     0.0000     0.0000    -0.0310     0.0000    -0.8000     0.0000   -80.0000    -0.0016     0.0005     0.0403    -0.8000    13.0000     5.5000     5.5000    15.0000    -1.0055     1.5000    75.0000     1.0000    80.308
     29    33.4000     45.000  15451.000  50796.000    122.000    154.000    153.000    103.000    147.000    158.000    118.000     98.000    163.000    140.000    129.000    227.000    149.000    129.000    121.000    190.000    130.000    135.000    112.000     91.000    120.000    133.000    106.000     98.000     89.000    101.000    131.000    115.000    127.000    129.000    104.000    141.000    160.000    173.000    128.000    362.000    181.000    150.000    142.000    122.000    160.000    199.000    154.000  44702.000     0.0000     0.0000    -0.0310     0.0000    -0.8000     0.0000   -80.0000    -0.0016     0.0005     0.0403    -0.8000    13.0000     5.5000     5.5000    15.0000    -1.0055     1.5000    75.0000     1.0000    80.136
     30    33.4500     45.000  15429.000  50924.000    147.000    160.000    153.000    108.000    122.000    154.000    146.000    103.000    168.000    155.000    139.000    256.000    135.000    135.000    132.000    171.000    131.000    124.000    123.000     91.000    129.000    123.000    134.000     96.000     84.000     93.000    127.000    133.000    131.000    147.000    117.000    121.000    168.000    158.000    142.000    340.000    196.000    156.000    128.000    143.000    170.000    182.000    131.000  44722.000     0.0000     0.0000    -0.0310     0.0000    -0.8000     0.0000   -80.0000    -0.0016     0.0005     0.0403    -0.8000    13.0000     5.5000     5.5000    15.0000    -1.0055     1.5000    75.0000     1.0000    79.969
     31    33.5000     45.000  15272.000  51018.000    113.000    178.000    163.000    123.000    123.000    155.000    160.000     92.000    160.000    158.000    158.000    268.000    121.000    145.000    130.000    166.000    142.000    102.000    106.000    105.000    110.000    125.000    131.000    110.000     98.000    105.000    126.000    118.000    139.000    123.000    121.000    142.000    156.000    161.000    126.000    316.000    174.000    140.000    123.000    123.000    163.000    173.000    146.000  44901.000     0.0000     0.0000    -0.0310     0.0000    -0.8000     0.0000   -80.0000    -0.0016     0.0005     0.0403    -0.8000    13.0000     5.5000     5.5000    15.0000    -1.0055     1.5000    75.0000     1.0000    79.783
     32    33.5500     45.000  15438.000  50802.000    101.000    155.000    215.000    106.000    111.000    144.000    130.000    108.000    134.000    177.000    156.000    345.000    122.000    152.000    116.000    166.000    120.000    101.000     91.000     98.000     95.000    126.000    133.000    113.000    101.000    108.000    130.000    106.000    146.000    106.000    109.000    138.000    158.000    179.000    133.000    316.000    188.000    151.000    107.000    123.000    165.000    155.000    146.000  44722.000     0.0000     0.0000    -0.0310     0.0000    -0.8000     0.0000   -80.0000    -0.0016     0.0005     0.0403    -0.8000    13.0000     5.5000     5.5000    15.0000    -1.0055     1.5000    75.0000     1.0000    79.589
     33    33.6000     45.000  15331.000  50690.000    119.000    124.000    247.000     95.000    101.000    134.000    128.000    104.000    151.000    213.000    150.000    313.000    140.000    119.000    109.000    127.000    127.000     97.000    114.000     83.000    122.000    123.000    115.000    138.000     79.000     89.000    143.000    116.000    157.000    114.000    114.000    120.000    151.000    149.000    142.000    250.000    180.000    156.000    139.000    123.000    163.000    174.000    136.000  44702.000     0.0000     0.0000    -0.0310     0.0000    -0.8000     0.0000   -80.0000    -0.0016     0.0005     0.0403    -0.8000    13.0000     5.5000     5.5000    15.0000    -1.0055     1.5000    75.0000     1.0000    79.351
     34    33.6500     45.000  15443.000  51145.000    119.000    138.000    288.000    106.000    120.000    126.000    119.000     76.000    130.000    174.000    199.000    341.000    127.000    143.000    127.000    130.000    138.000     99.000    115.000     87.000    117.000    138.000    115.000    139.000    103.000    100.000    124.000    111.000    152.000    123.000    125.000    131.000    160.000    156.000    150.000    288.000    186.000    138.000    116.000    128.000    169.000    180.000    173.000  44921.000     0.0000     0.0000    -0.0310     0.0000    -0.8000     0.0000   -80.0000    -0.0016     0.0005     0.0403    -0.8000    13.0000     5.5000     5.5000    15.0000    -1.0055     1.5000    75.0000     1.0000    79.165
     35    33.7000     45.000  15430.000  51242.000    117.000    108.000    292.000    112.000    106.000    124.000    121.000    102.000    148.000    170.000    211.000    338.000    143.000    131.000    138.000    152.000    162.000     91.000    114.000    105.000    135.000    114.000    114.000    128.000     96.000     95.000    135.000    108.000    153.000    119.000    119.000    119.000    168.000    162.000    141.000    316.000    192.000    152.000    137.000    127.000    196.000    154.000    156.000  44921.000     0.0000     0.0000    -0.0310     0.0000    -0.8000     0.0000   -80.0000    -0.0016     0.0005     0.0403    -0.8000    13.0000     5.5000     5.5000    15.0000    -1.0055     1.5000    75.0000     1.0000    78.924
     36    33.7500     45.000  15386.000  50859.000    130.000    129.000    244.000    122.000    107.000    115.000    108.000    112.000    136.000    196.000    229.000    283.000    141.000    122.000     90.000    122.000    124.000    101.000    107.000     95.000    127.000    121.000    108.000    147.000    102.000     95.000    131.000    110.000    189.000    119.000    124.000    145.000    156.000    154.000    124.000    264.000    154.000    151.000    128.000    124.000    167.000    180.000    164.000  44762.000     0.0000     0.0000    -0.0310     0.0000    -0.8000     0.0000   -80.0000    -0.0016     0.0005     0.0403    -0.8000    13.0000     5.5000     5.5000    15.0000    -1.0055     1.5000    75.0000     1.0000    78.706
     37    33.8000     45.000  15388.000  51075.000     81.000    110.000    268.000    143.000    119.000     90.000    105.000    119.000    124.000    182.000    251.000    287.000    137.000    157.000    132.000    145.000    139.000     82.000    125.000    101.000    135.000    118.000    132.000    136.000    107.000    106.000    125.000    102.000    200.000    132.000    124.000    152.000    156.000    147.000    172.000    281.000    178.000    158.000    114.000    115.000    193.000    185.000    168.000  44742.000     0.0000     0.0000    -0.0310     0.0000    -0.8000     0.0000   -80.0000    -0.0016     0.0005     0.0403    -0.8000    13.0000     5.5000     5.5000    15.0000    -1.0055     1.5000    75.0000     1.0000    78.493
     38    33.8500     45.000  15359.000  50828.000     98.000    130.000    217.000    135.000     91.000    102.000    107.000    107.000    151.000    166.000    264.000    269.000    155.000    122.000    116.000    138.000    127.000    100.000    124.000     87.000    119.000    113.000    110.000    147.000    119.000     92.000    149.000    115.000    178.000    113.000    132.000    139.000    166.000    159.000    156.000    259.000    170.000    138.000    115.000    122.000    177.000    162.000    169.000  44703.000     0.0000     0.0000    -0.0310     0.0000    -0.8000     0.0000   -80.0000    -0.0016     0.0005     0.0403    -0.8000    13.0000     5.5000     5.5000    15.0000    -1.0055     1.5000    75.0000     1.0000    78.246
     39    33.9000     45.000  15320.000  50738.000     83.000    117.000    213.000    144.000    114.000     86.000    105.000    114.000    131.000    143.000    241.000    267.000    155.000    133.000    135.000    146.000    125.000     98.000    117.000     97.000    127.000    140.000     96.000    139.000    104.000     96.000    155.000     94.000    193.000    124.000    117.000    142.000    143.000    153.000    162.000    273.000    173.000    130.000    117.000    106.000    171.000    146.000    151.000  44722.000     0.0000     0.0000    -0.0310     0.0000    -0.8000     0.0000   -80.0000    -0.0016     0.0005     0.0403    -0.8000    13.0000     5.5000     5.5000    15.0000    -1.0055     1.5000    75.0000     1.0000    78.024
     40    33.9500     45.000  15586.000  51002.000     94.000    133.000    205.000    160.000     99.000     89.000    110.000    115.000    147.000    137.000    231.000    240.000    144.000    106.000    108.000    172.000    114.000    109.000    117.000     93.000    123.000    122.000    107.000    144.000    107.000    109.000    139.000    113.000    225.000    115.000    135.000    163.000    151.000    151.000    153.000    233.000    171.000    155.000    116.000    117.000    174.000    171.000    163.000  44922.000     0.0000     0.0000    -0.0310     0.0000    -0.8000     0.0000   -80.0000    -0.0016     0.0005     0.0403    -0.8000    13.0000     5.5000     5.5000    15.0000    -1.0055     1.5000    75.0000     1.0000    77.783
     41    34.0000     45.000  15585.000  50859.000     97.000    172.000    160.000    145.000     99.000     86.000    104.000    127.000    122.000    112.000    192.000    243.000    167.000    100.000    106.000    171.000    122.000    109.000    112.000     91.000    114.000    122.000    109.000    153.000    103.000    105.000    181.000     84.000    212.000    110.000    127.000    142.000    172.000    169.000    155.000    232.000    166.000    136.000    125.000    134.000    184.000    145.000    140.000  44902.000     0.0000     0.0000    -0.0310     0.0000    -0.8000     0.0000   -80.0000    -0.0016     0.0005     0.0403    -0.8000    13.0000     5.5000     5.5000    15.0000    -1.0055     1.5000    75.0000     1.0000    77.522
     42    34.0500     45.000  15601.000  50938.000    106.000    189.000    139.000    114.000    105.000     95.000     88.000    137.000    154.000    118.000    193.000    202.000    178.000    112.000     94.000    194.000    133.000     78.000    104.000     81.000    130.000    127.000    120.000    168.000    122.000    103.000    144.000    102.000    236.000    114.000    154.000    146.000    156.000    148.000    163.000    223.000    162.000    147.000    110.000    118.000    197.000    161.000    151.000  44922.000     0.0000     0.0000    -0.0310     0.0000    -0.8000     0.0000   -80.0000    -0.0016     0.0005     0.0403    -0.8000    13.0000     5.5000     5.5000    15.0000    -1.0055     1.5000    75.0000     1.0000    77.286
     43    34.1000     45.000  15367.000  51137.000    105.000    236.000    178.000    148.000    112.000     90.000    109.000    119.000    142.000    120.000    179.000    207.000    144.000     98.000    117.000    169.000    143.000    101.000    122.000     81.000    106.000    106.000    113.000    170.000    111.000    112.000    159.000    116.000    286.000    110.000    135.000    162.000    158.000    148.000    162.000    239.000    182.000    151.000    134.000    131.000    211.000    143.000    150.000  44922.000     0.0000     0.0000    -0.0310     0.0000    -0.8000     0.0000   -80.0000    -0.0016     0.0005     0.0403    -0.8000    13.0000     5.5000     5.5000    15.0000    -1.0055     1.5000    75.0000     1.0000    77.047
     44    34.1500     45.000  15286.000  50845.000    128.000    257.000    161.000    152.000    104.000     75.000     90.000    152.000    158.000    125.000    170.000    173.000    168.000    114.000    123.000    214.000    110.000     93.000    100.000     95.000    107.000    133.000    138.000    186.000    126.000     88.000    149.000     94.000    243.000    109.000    129.000    143.000    169.000    121.000    171.000    198.000    153.000    160.000    142.000    111.000    197.000    153.000    161.000  44702.000     0.0000     0.0000    -0.0310     0.0000    -0.8000     0.0000   -80.0000    -0.0016     0.0005     0.0403    -0.8000    13.0000     5.5000     5.5000    15.0000    -1.0055     1.5000    75.0000     1.0000    76.807
     45    34.2000     45.000  15192.000  51228.000     82.000    280.000    164.000    127.000     97.000     90.000    104.000    177.000    181.000    122.000    150.000    162.000    172.000    106.000    112.000    204.000    113.000     88.000    107.000     94.000    120.000    122.000    158.000    178.000    127.000    134.000    176.000    100.000    263.000    147.000    161.000    133.000    151.000    134.000    160.000    212.000    161.000    151.000    125.000    140.000    198.000    178.000    146.000  44921.000     0.0000     0.0000    -0.0310     0.0000    -0.8000     0.0000   -80.0000    -0.0016     0.0005     0.0403    -0.8000    13.0000     5.5000     5.5000    15.0000    -1.0055     1.5000    75.0000     1.0000    76.540
     46    34.2500     45.000  15505.000  51150.000    117.000    296.000    183.000    162.000    107.000     88.000    123.000    194.000    178.000    127.000    137.000    151.000    144.000    127.000    134.000    187.000    139.000     77.000    116.000     97.000    132.000    120.000    151.000    174.000    112.000    124.000    176.000     96.000    287.000    131.000    147.000    165.000    150.000    135.000    142.000    201.000    195.000    136.000    118.000    115.000    209.000    153.000    175.000  44722.000     0.0000     0.0000    -0.0310     0.0000    -0.8000     0.0000   -80.0000    -0.0016     0.0005     0.0403    -0.8000    13.0000     5.5000     5.5000    15.0000    -1.0055     1.5000    75.0000     1.0000    76.314
     47    34.3000     45.000  15624.000  51357.000    129.000    325.000    187.000    172.000    123.000     90.000    121.000    172.000    179.000    152.000    135.000    129.000    157.000    108.000    120.000    228.000    133.000    100.000     92.000     94.000    135.000     85.000    153.000    161.000    109.000    134.000    170.000    116.000    312.000    113.000    154.000    143.000    139.000    130.000    181.000    211.000    168.000    138.000    135.000    124.000    187.000    138.000    153.000  44922.000     0.0000     0.0000    -0.0310     0.0000    -0.8000     0.0000   -80.0000    -0.0016     0.0005     0.0403    -0.8000    13.0000     5.5000     5.5000    15.0000    -1.0055     1.5000    75.0000     1.0000    76.069
     48    34.3500     45.000  15472.000  51260.000    175.000    313.000    203.000    224.000    128.000     93.000    118.000    200.000    183.000    137.000    108.000    133.000    149.000    110.000    103.000    203.000    149.000     93.000    121.000     83.000    157.000    112.000    157.000    148.000    127.000    110.000    171.000    111.000    271.000    118.000    146.000    174.000    142.000    126.000    169.000    186.000    164.000    146.000    152.000    129.000    211.000    139.000    146.000  44722.000     0.0000     0.0000    -0.0310     0.0000    -0.8000     0.0000   -80.0000    -0.0016     0.0005     0.0403    -0.8000    13.0000     5.5000     5.5000    15.0000    -1.0055     1.5000    75.0000     1.0000    75.835
     49    34.4000     45.000  15262.000  51341.000    170.000    312.000    192.000    223.000    110.000    109.000    107.000    198.000    183.000    163.000    115.000    123.000    133.000     98.000    137.000    204.000    121.000     93.000     86.000     89.000    118.000    108.000    169.000    172.000    130.000     97.000    167.000    119.000    284.000    123.000    147.000    137.000    145.000    138.000    168.000    184.000    141.000    155.000    127.000    136.000    198.000    164.000    146.000  44902.000     0.0000     0.0000    -0.0310     0.0000    -0.8000     0.0000   -80.0000    -0.0016     0.0005     0.0403    -0.8000    13.0000     5.5000     5.5000    15.0000    -1.0055     1.5000    75.0000     1.0000    75.596
     50    34.4500     45.000  15357.000  51374.000    221.000    259.000    218.000    243.000    105.000    125.000     98.000    145.000    243.000    203.000    132.000    111.000    153.000    105.000    119.000    200.000    128.000     81.000    101.000    106.000    144.000    109.000    200.000    148.000    117.000    104.000    182.000     99.000    316.000    118.000    159.000    164.000    140.000    130.000    178.000    177.000    164.000    119.000    128.000    123.000    215.000    155.000    167.000  44722.000     0.0000     0.0000    -0.0310     0.0000    -0.8000     0.0000   -80.0000    -0.0016     0.0005     0.0403    -0.8000    13.0000     5.5000     5.5000    15.0000    -1.0055     1.5000    75.0000     1.0000    75.356
     51    34.5000     45.000  15615.000  51287.000    215.000    228.000    212.000    308.000    124.000    136.000    100.000    171.000    218.000    208.000    118.000    112.000    140.000     93.000    101.000    185.000    118.000     82.000    102.000    104.000    119.000    100.000    202.000    126.000     92.000    107.000    194.000    138.000    285.000    132.000    128.000    129.000    180.000    125.000    189.000    185.000    159.000    146.000    112.000    150.000    217.000    147.000    148.000  44702.000     0.0000     0.0000    -0.0310     0.0000    -0.8000     0.0000   -80.0000    -0.0016     0.0005     0.0403    -0.8000    13.0000     5.5000     5.5000    15.0000    -1.0055     1.5000    75.0000     1.0000    75.124
     52    34.5500     45.000  15538.000  51488.000    246.000    220.000    209.000    368.000    121.000    136.000     95.000    157.000    260.000    225.000    116.000    126.000    123.000    127.000    123.000    174.000    113.000     84.000     93.000    113.000    130.000    111.000    205.000    120.000    102.000     93.000    197.000     90.000    307.000    148.000    137.000    161.000    179.000    133.000    177.000    197.000    157.000    150.000    137.000    128.000    189.000    159.000    150.000  44702.000     0.0000     0.0000    -0.0310     0.0000    -0.8000     0.0000   -80.0000    -0.0016     0.0005     0.0403    -0.8000    13.0000     5.5000     5.5000    15.0000    -1.0055     1.5000    75.0000     1.0000    74.874
     53    34.6000     45.000  15357.000  51589.000    273.000    183.000    191.000    407.000    110.000    143.000    103.000    137.000    269.000    230.000    132.000    123.000    146.000    114.000    112.000    198.000    133.000     90.000     86.000    127.000    147.000     96.000    210.000    110.000    102.000    120.000    212.000    100.000    276.000    117.000    135.000    143.000    175.000    147.000    190.000    179.000    145.000    149.000    138.000    130.000    213.000    162.000    164.000  44722.000     0.0000     0.0000    -0.0310     0.0000    -0.8000     0.0000   -80.0000    -0.0016     0.0005     0.0403    -0.8000    13.0000     5.5000     5.5000    15.0000    -1.0055     1.5000    75.0000     1.0000    74.621
     54    34.6500     45.000  15303.000  51647.000    273.000    134.000    198.000    516.000    117.000    144.000    108.000    146.000    266.000    233.000    124.000    117.000    131.000    110.000    101.000    196.000    134.000     81.000     93.000    127.000    141.000    101.000    249.000    130.000    104.000    102.000    201.000    111.000    286.000    145.000    156.000    163.000    176.000    150.000    194.000    170.000    162.000    131.000    136.000    122.000    202.000    116.000    148.000  44702.000     0.0000     0.0000    -0.0310     0.0000    -0.8000     0.0000   -80.0000    -0.0016     0.0005     0.0403    -0.8000    13.0000     5.5000     5.5000    15.0000    -1.0055     1.5000    75.0000     1.0000    74.386
     55    34.7000     45.000  15654.000  51885.000    218.000    127.000    165.000    547.000    115.000    157.000     89.000    103.000    300.000    235.000    123.000    117.000    133.000    108.000    129.000    205.000    129.000     88.000     85.000    133.000    122.000    105.000    250.000    111.000    113.000     99.000    214.000     96.000    259.000    146.000    147.000    167.000    186.000    151.000    183.000    180.000    167.000    156.000    139.000    145.000    228.000    137.000    157.000  44921.000     0.0000     0.0000    -0.0310     0.0000    -0.8000     0.0000   -80.0000    -0.0016     0.0005     0.0403    -0.8000    13.0000     5.5000     5.5000    15.0000    -1.0055     1.5000    75.0000     1.0000    74.163
     56    34.7500     45.000  15522.000  52088.000    210.000    128.000    163.000    553.000    102.000    198.000     84.000    103.000    283.000    243.000    180.000    143.000    160.000    112.000    109.000    226.000    117.000     94.000    102.000    116.000    147.000    111.000    266.000    135.000    118.000    123.000    235.000    120.000    287.000    124.000    133.000    147.000    174.000    124.000    209.000    179.000    147.000    151.000    132.000    136.000    223.000    149.000    171.000  44921.000     0.0000     0.0000    -0.0310     0.0000    -0.8000     0.0000   -80.0000    -0.0016     0.0005     0.0403    -0.8000    13.0000     5.5000     5.5000    15.0000    -1.0055     1.5000    75.0000     1.0000    73.941
     57    34.8000     45.000  15544.000  51746.000    178.000    112.000    155.000    626.000     99.000    139.000    101.000    112.000    308.000    225.000    179.000    174.000    150.000    115.000    133.000    195.000    131.000    102.000     83.000    132.000    148.000     83.000    254.000    119.000    111.000     95.000    201.000    122.000    250.000    139.000    135.000    162.000    189.000    135.000    208.000    171.000    138.000    162.000    130.000    121.000    235.000    139.000    148.000  44702.000     0.0000     0.0000    -0.0310     0.0000    -0.8000     0.0000   -80.0000    -0.0016     0.0005     0.0403    -0.8000    13.0000     5.5000     5.5000    15.0000    -1.0055     1.5000    75.0000     1.0000    73.716
     58    34.8500     45.000  15402.000  51752.000    190.000    123.000    148.000    546.000     94.000    193.000    110.000    113.000    356.000    199.000    247.000    162.000    137.000    126.000    114.000    195.000    130.000    108.000     95.000    125.000    145.000     97.000    223.000     93.000    126.000     88.000    195.000     97.000    250.000    146.000    127.000    128.000    185.000    121.000    195.000    174.000    157.000    150.000    140.000    136.000    210.000    151.000    185.000  44722.000     0.0000     0.0000    -0.0310     0.0000    -0.8000     0.0000   -80.0000    -0.0016     0.0005     0.0403    -0.8000    13.0000     5.5000     5.5000    15.0000    -1.0055     1.5000    75.0000     1.0000    73.501
     59    34.9000     45.000  15651.000  51892.000    239.000    112.000    153.000    478.000     90.000    202.000    108.000    118.000    349.000    176.000    367.000    205.000    132.000     89.000    110.000    206.000    149.000     85.000    109.000    130.000    162.000    108.000    208.000    112.000    129.000     97.000    191.000    114.000    256.000    151.000    135.000    125.000    191.000    120.000    222.000    162.000    161.000    147.000    127.000    154.000    223.000    128.000    160.000  44702.000     0.0000     0.0000    -0.0310     0.0000    -0.8000     0.0000   -80.0000    -0.0016     0.0005     0.0403    -0.8000    13.0000     5.5000     5.5000    15.0000    -1.0055     1.5000    75.0000     1.0000    73.274
     60    34.9500     45.000  15365.000  52225.000    259.000    102.000    120.000    397.000    106.000    179.000    101.000    120.000    374.000    142.000    458.000    265.000    162.000    114.000    114.000    218.000    145.000     91.000     92.000    127.000    170.000    103.000    195.000    112.000    134.000     90.000    201.000    111.000    223.000    138.000    126.000    128.000    188.000    171.000    252.000    175.000    143.000    145.000    140.000    130.000    219.000    163.000    161.000  44921.000     0.0000     0.0000    -0.0310     0.0000    -0.8000     0.0000   -80.0000    -0.0016     0.0005     0.0403    -0.8000    13.0000     5.5000     5.5000    15.0000    -1.0055     1.5000    75.0000     1.0000    73.436
     61    35.0000     45.000  15633.000  52477.000    323.000     98.000    147.000    322.000     98.000    139.000    112.000    113.000    405.000    152.000    617.000    293.000    127.000    107.000    117.000    207.000    173.000     84.000    127.000    167.000    198.000    115.000    211.000     93.000    113.000    108.000    198.000    103.000    220.000    146.000    133.000    122.000    216.000    142.000    252.000    169.000    143.000    148.000    151.000    126.000    200.000    151.000    170.000  44921.000     0.0000     0.0000    -0.0310     0.0000    -0.8000     0.0000   -80.0000    -0.0016     0.0005     0.0403    -0.8000    13.0000     5.5000     5.5000    15.0000    -1.0055     1.5000    75.0000     1.0000    74.130
     62    35.0500     45.000  15593.000  52376.000    417.000    101.000    128.000    261.000    109.000    124.000    102.000     99.000    437.000    128.000    765.000    350.000    123.000    102.000    122.000    210.000    173.000     92.000    119.000    156.000    216.000     98.000    199.000    124.000    111.000    109.000    161.000    102.000    238.000    156.000    107.000    120.000    185.000    122.000    259.000    182.000    115.000    163.000    141.000    101.000    208.000    153.000    166.000  44722.000     0.0000     0.0000    -0.0310     0.0000    -0.8000     0.0000   -80.0000    -0.0016     0.0005     0.0403    -0.8000    13.0000     5.5000     5.5000    15.0000    -1.0055     1.5000    75.0000     1.0000    74.972
     63    35.1000     45.000  15408.000  53128.000    546.000     99.000    101.000    211.000    105.000    119.000    102.000    106.000    420.000    120.000   1048.000    386.000    125.000    103.000    125.000    195.000    204.000    104.000    121.000    159.000    228.000    113.000    184.000    114.000    114.000     98.000    185.000    113.000    245.000    157.000    117.000    136.000    193.000    135.000    308.000    192.000    153.000    151.000    151.000    145.000    236.000    149.000    210.000  44802.000     0.0000     0.0000    -0.0310     0.0000    -0.8000     0.0000   -80.0000    -0.0016     0.0005     0.0403    -0.8000    13.0000     5.5000     5.5000    15.0000    -1.0055     1.5000    75.0000     1.0000    75.683
     64    35.1500     45.000  15408.000  53130.000    609.000     98.000    115.000    169.000    105.000    128.000    116.000     88.000    444.000    123.000   1100.000    370.000    130.000    120.000    113.000    195.000    196.000    101.000    122.000    144.000    252.000    110.000    139.000    122.000    120.000    102.000    174.000    115.000    174.000    141.000    103.000    176.000    198.000    131.000    307.000    192.000    152.000    151.000    158.000    114.000    192.000    138.000    162.000  44921.000     0.0000     0.0000    -0.0310     0.0000    -0.8000     0.0000   -80.0000    -0.0016     0.0005     0.0403    -0.8000    13.0000     5.5000     5.5000    15.0000    -1.0055     1.5000    75.0000     1.0000    76.182
     65    35.2000     45.000  15276.000  53206.000    658.000     88.000    140.000    181.000     99.000    110.000     85.000    122.000    364.000    143.000   1202.000    378.000    124.000     98.000    132.000    195.000    239.000     89.000    123.000    130.000    234.000    107.000    151.000    117.000    115.000    110.000    168.000     96.000    188.000    165.000    120.000    155.000    210.000    140.000    294.000    171.000    133.000    160.000    158.000    122.000    175.000    146.000    170.000  44901.000     0.0000     0.0000    -0.0310     0.0000    -0.8000     0.0000   -80.0000    -0.0016     0.0005     0.0403    -0.8000    13.0000     5.5000     5.5000    15.0000    -1.0055     1.5000    75.0000     1.0000    76.684
     66    35.2500     45.000  15389.000  53076.000    587.000     96.000    144.000    177.000     98.000    117.000     98.000    122.000    354.000    133.000   1143.000    334.000    102.000     83.000    133.000    189.000    216.000     96.000    143.000    133.000    246.000    108.000    143.000    144.000    106.000     92.000    175.000    112.000    172.000    147.000    133.000    119.000    193.000    108.000    354.000    202.000    152.000    140.000    151.000    141.000    211.000    147.000    161.000  44921.000     0.0000     0.0000    -0.0310     0.0000    -0.8000     0.0000   -80.0000    -0.0016     0.0005     0.0403    -0.8000    13.0000     5.5000     5.5000    15.0000    -1.0055     1.5000    75.0000     1.0000    77.250
     67    35.3000     45.000  15431.000  52810.000    513.000    101.000    130.000    166.000     98.000    115.000    107.000    127.000    287.000    124.000   1112.000    295.000    107.000     89.000    139.000    213.000    248.000     97.000    119.000    112.000    225.000    103.000    148.000    134.000    113.000     94.000    160.000    110.000    178.000    142.000    109.000    120.000    229.000    140.000    336.000    176.000    139.000    148.000    158.000    115.000    187.000    148.000    178.000  44921.000     0.0000     0.0000    -0.0310     0.0000    -0.8000     0.0000   -80.0000    -0.0016     0.0005     0.0403    -0.8000    13.0000     5.5000     5.5000    15.0000    -1.0055     1.5000    75.0000     1.0000    77.841
     68    35.3500     45.000  15628.000  52516.000    444.000     90.000    175.000    193.000    126.000    111.000     89.000     97.000    272.000    145.000    899.000    239.000    106.000     98.000    166.000    177.000    244.000    120.000    131.000    125.000    258.000    115.000    129.000    126.000     94.000     94.000    141.000    110.000    158.000    137.000    113.000    142.000    199.000    146.000    317.000    190.000    147.000    154.000    149.000    130.000    192.000    150.000    177.000  44901.000     0.0000     0.0000    -0.0310     0.0000    -0.8000     0.0000   -80.0000    -0.0016     0.0005     0.0403    -0.8000    13.0000     5.5000     5.5000    15.0000    -1.0055     1.5000    75.0000     1.0000    78.360
     69    35.4000     45.000  15362.000  52207.000    346.000    118.000    186.000    233.000    109.000     92.000    110.000    122.000    216.000    149.000    771.000    231.000    106.000    116.000    154.000    178.000    253.000     89.000    124.000    137.000    231.000     96.000    154.000    131.000    112.000    106.000    155.000    133.000    146.000    142.000    107.000    164.000    204.000    131.000    365.000    192.000    148.000    149.000    158.000    122.000    168.000    146.000    185.000  44722.000     0.0000     0.0000    -0.0310     0.0000    -0.8000     0.0000   -80.0000    -0.0016     0.0005     0.0403    -0.8000    13.0000     5.5000     5.5000    15.0000    -1.0055     1.5000    75.0000     1.0000    78.872
     70    35.4500     45.000  15635.000  52073.000    255.000    104.000    189.000    263.000    110.000    102.000     96.000    124.000    204.000    154.000    650.000    180.000    111.000     99.000    152.000    195.000    236.000    114.000    130.000    127.000    216.000    113.000    124.000    129.000    108.000    100.000    146.000    103.000    162.000    150.000    115.000    155.000    216.000    129.000    345.000    203.000    145.000    137.000    146.000    113.000    215.000    138.000    169.000  44901.000     0.0000     0.0000    -0.0310     0.0000    -0.8000     0.0000   -80.0000    -0.0016     0.0005     0.0403    -0.8000    13.0000     5.5000     5.5000    15.0000    -1.0055     1.5000    75.0000     1.0000    79.316
     71    35.5000     45.000  15550.000  51990.000    226.000    135.000    214.000    260.000    118.000     94.000     92.000    130.000    199.000    159.000    506.000    162.000     92.000    121.000    158.000    184.000    259.000    119.000    123.000    118.000    239.000    131.000    112.000    125.000    120.000    118.000    148.000    110.000    131.000    140.000    117.000    150.000    178.000    138.000    379.000    184.000    113.000    158.000    138.000    131.000    196.000    147.000    197.000  44921.000     0.0000     0.0000    -0.0310     0.0000    -0.8000     0.0000   -80.0000    -0.0016     0.0005     0.0403    -0.8000    13.0000     5.5000     5.5000    15.0000    -1.0055     1.5000    75.0000     1.0000    79.711
     72    35.5500     45.000  15493.000  51486.000    187.000    137.000    209.000    251.000    109.000     82.000    105.000    115.000    183.000    111.000    386.000    188.000    109.000    121.000    153.000    170.000    255.000    107.000    120.000    114.000    205.000    108.000    109.000    128.000    112.000    114.000    150.000     99.000    141.000    137.000    125.000    139.000    201.000    137.000    395.000    221.000    129.000    140.000    141.000    134.000    194.000    135.000    178.000  44702.000     0.0000     0.0000    -0.0310     0.0000    -0.8000     0.0000   -80.0000    -0.0016     0.0005     0.0403    -0.8000    13.0000     5.5000     5.5000    15.0000    -1.0055     1.5000    75.0000     1.0000    80.055
     73    35.6000     45.000  15223.000  51754.000    187.000    124.000    227.000    269.000    118.000    105.000    126.000    148.000    194.000    126.000    310.000    156.000     97.000    133.000    158.000    169.000    250.000    124.000    127.000     87.000    188.000    117.000    116.000    139.000    112.000    131.000    148.000    100.000    150.000    140.000    110.000    131.000    207.000    126.000    423.000    199.000    132.000    161.000    149.000    126.000    180.000    158.000    155.000  44921.000     0.0000     0.0000    -0.0310     0.0000    -0.8000     0.0000   -80.0000    -0.0016     0.0005     0.0403    -0.8000    13.0000     5.5000     5.5000    15.0000    -1.0055     1.5000    75.0000     1.0000    80.404
     74    35.6500     45.000  15582.000  51203.000    165.000    113.000    201.000    219.000    112.000     92.000    105.000    146.000    195.000    129.000    225.000    149.000    117.000    130.000    181.000    174.000    240.000    100.000    113.000     96.000    198.000     97.000    137.000    110.000    118.000     90.000    142.000    104.000    126.000    128.000    122.000    150.000    203.000    133.000    395.000    199.000    130.000    165.000    160.000    119.000    168.000    142.000    143.000  44722.000     0.0000     0.0000    -0.0310     0.0000    -0.8000     0.0000   -80.0000    -0.0016     0.0005     0.0403    -0.8000    13.0000     5.5000     5.5000    15.0000    -1.0055     1.5000    75.0000     1.0000    80.663
     75    35.7000     45.000  15457.000  51223.000    161.000    136.000    211.000    201.000     98.000    115.000    117.000    169.000    176.000    141.000    195.000    172.000    106.000    117.000    204.000    160.000    227.000     88.000    127.000    101.000    194.000    134.000    113.000    119.000    110.000    118.000    146.000    118.000    135.000    109.000    102.000    138.000    194.000    146.000    386.000    218.000    110.000    168.000    135.000    137.000    176.000    141.000    152.000  44702.000     0.0000     0.0000    -0.0310     0.0000    -0.8000     0.0000   -80.0000    -0.0016     0.0005     0.0403    -0.8000    13.0000     5.5000     5.5000    15.0000    -1.0055     1.5000    75.0000     1.0000    80.879
     76    35.7500     45.000  15362.000  51371.000    152.000    125.000    185.000    184.000    113.000    122.000    104.000    156.000    183.000    151.000    201.000    181.000    129.000    110.000    196.000    149.000    217.000     99.000    138.000     96.000    154.000    119.000    137.000    108.000    100.000    134.000    154.000    122.000    120.000    133.000    113.000    165.000    162.000    135.000    373.000    205.000    139.000    144.000    169.000    116.000    169.000    137.000    150.000  44922.000     0.0000     0.0000    -0.0310     0.0000    -0.8000     0.0000   -80.0000    -0.0016     0.0005     0.0403    -0.8000    13.0000     5.5000     5.5000    15.0000    -1.0055     1.5000    75.0000     1.0000    81.034
     77    35.8000     45.000  15274.000  51170.000    142.000    128.000    205.000    156.000    136.000     94.000    105.000    168.000    180.000    159.000    173.000    145.000    123.000    128.000    189.000    140.000    205.000     80.000     87.000     99.000    168.000    131.000    104.000    104.000    114.000    124.000    154.000    108.000    134.000    125.000    109.000    122.000    191.000    149.000    405.000    202.000    120.000    176.000    148.000    112.000    176.000    144.000    146.000  44862.000     0.0000     0.0000    -0.0310     0.0000    -0.8000     0.0000   -80.0000    -0.0016     0.0005     0.0403    -0.8000    13.0000     5.5000     5.5000    15.0000    -1.0055     1.5000    75.0000     1.0000    81.161
     78    35.8500     45.000  15399.000  51242.000    133.000    116.000    149.000    151.000    122.000    127.000    131.000    183.000    155.000    136.000    169.000    180.000    119.000    123.000    198.000    134.000    220.000    114.000    122.000     89.000    129.000    134.000    116.000    129.000     97.000    108.000    132.000    145.000    147.000    144.000    123.000    150.000    196.000    116.000    369.000    180.000    136.000    144.000    164.000    129.000    180.000    152.000    149.000  44902.000     0.0000     0.0000    -0.0310     0.0000    -0.8000     0.0000   -80.0000    -0.0016     0.0005     0.0403    -0.8000    13.0000     5.5000     5.5000    15.0000    -1.0055     1.5000    75.0000     1.0000    81.291
     79    35.9000     45.000  15593.000  51202.000    155.000    107.000    155.000    159.000    126.000     98.000    125.000    141.000    161.000    116.000    193.000    153.000    120.000    112.000    253.000    145.000    219.000    105.000    111.000     90.000    142.000    138.000    103.000    108.000    125.000    114.000    136.000    131.000    131.000    140.000    116.000    169.000    177.000    133.000    389.000    213.000    136.000    128.000    142.000    128.000    170.000    131.000    137.000  44921.000     0.0000     0.0000    -0.0310     0.0000    -0.8000     0.0000   -80.0000    -0.0016     0.0005     0.0403    -0.8000    13.0000     5.5000     5.5000    15.0000    -1.0055     1.5000    75.0000     1.0000    81.345
     80    35.9500     45.000  15447.000  51129.000    150.000    114.000    132.000    174.000    157.000    102.000    117.000    162.000    161.000    143.000    215.000    156.000    128.000    103.000    228.000    121.000    177.000    114.000     91.000    112.000    136.000    141.000    105.000     96.000    109.000    103.000    131.000    143.000    122.000    126.000    101.000    153.000    158.000    136.000    377.000    190.000    155.000    149.000    128.000    137.000    184.000    143.000    148.000  44901.000     0.0000     0.0000    -0.0310     0.0000    -0.8000     0.0000   -80.0000    -0.0016     0.0005     0.0403    -0.8000    13.0000     5.5000     5.5000    15.0000    -1.0055     1.5000    75.0000     1.0000    81.395
     81    36.0000     45.000  15444.000  51151.000    162.000    108.000    123.000    169.000    168.000    103.000    116.000    122.000    153.000    168.000    225.000    148.000    132.000    107.000    208.000    121.000    193.000    113.000     93.000    117.000    121.000    136.000    110.000    125.000    113.000    112.000    146.000    124.000    114.000    120.000    119.000    140.000    157.000    147.000    375.000    214.000    135.000    131.000    144.000    126.000    186.000    135.000    151.000  44921.000     0.0000     0.0000    -0.0310     0.0000    -0.8000     0.0000   -80.0000    -0.0016     0.0005     0.0403    -0.8000    13.0000     5.5000     5.5000    15.0000    -1.0055     1.5000    75.0000     1.0000    81.404
     82    36.0500     45.000  15299.000  50897.000    147.000    136.000    108.000    144.000    168.000    115.000    110.000    130.000    140.000    147.000    276.000    154.000    127.000    129.000    195.000    132.000    181.000     94.000    104.000     86.000    109.000    146.000    116.000     98.000    112.000    104.000    151.000    104.000    112.000    123.000    116.000    139.000    170.000    136.000    395.000    172.000    141.000    174.000    146.000    125.000    188.000    141.000    134.000  44722.000     0.0000     0.0000    -0.0310     0.0000    -0.8000     0.0000   -80.0000    -0.0016     0.0005     0.0403    -0.8000    13.0000     5.5000     5.5000    15.0000    -1.0055     1.5000    75.0000     1.0000    81.385
     83    36.1000     45.000  15198.000  51089.000    162.000    145.000    103.000    145.000    186.000    120.000    115.000    117.000    141.000    154.000    275.000    137.000    174.000    107.000    169.000    131.000    145.000     83.000    106.000    113.000    120.000    132.000    123.000    118.000     90.000     89.000    131.000    120.000    120.000    112.000    122.000    159.000    149.000    154.000    369.000    203.000    140.000    160.000    149.000    133.000    183.000    148.000    136.000  44901.000     0.0000     0.0000    -0.0310     0.0000    -0.8000     0.0000   -80.0000    -0.0016     0.0005     0.0403    -0.8000    13.0000     5.5000     5.5000    15.0000    -1.0055     1.5000    75.0000     1.0000    81.359
     84    36.1500     45.000  15310.000  50809.000    153.000    179.000     99.000    118.000    182.000    111.000    110.000    131.000    155.000    160.000    292.000    146.000    137.000    100.000    178.000    121.000    149.000    113.000    101.000    107.000    117.000    124.000     99.000     98.000     88.000    112.000    112.000    147.000    110.000    134.000    115.000    159.000    165.000    143.000    343.000    178.000    122.000    150.000    135.000    131.000    166.000    142.000    155.000  44722.000     0.0000     0.0000    -0.0310     0.0000    -0.8000     0.0000   -80.0000    -0.0016     0.0005     0.0403    -0.8000    13.0000     5.5000     5.5000    15.0000    -1.0055     1.5000    75.0000     1.0000    81.282
     85    36.2000     45.000  15446.000  50940.000    144.000    210.000     88.000    133.000    172.000    136.000    106.000    147.000    202.000    142.000    329.000    144.000    163.000     97.000    170.000    131.000    132.000    101.000     95.000    107.000    131.000    121.000    125.000     97.000    103.000    114.000    131.000    126.000    110.000    147.000    113.000    148.000    148.000    164.000    347.000    163.000    151.000    127.000    127.000    128.000    173.000    138.000    157.000  44702.000     0.0000     0.0000    -0.0310     0.0000    -0.8000     0.0000   -80.0000    -0.0016     0.0005     0.0403    -0.8000    13.0000     5.5000     5.5000    15.0000    -1.0055     1.5000    75.0000     1.0000    81.231
     86    36.2500     45.000  15456.000  50988.000    133.000    231.000     97.000    115.000    162.000    143.000     83.000    131.000    161.000    158.000    326.000    138.000    150.000    111.000    152.000    141.000    126.000    107.000    108.000    100.000    128.000    119.000    117.000    128.000    110.000    117.000    128.000    161.000    127.000    122.000    130.000    146.000    159.000    150.000    370.000    181.000    132.000    137.000    143.000    145.000    179.000    123.000    161.000  44702.000     0.0000     0.0000    -0.0310     0.0000    -0.8000     0.0000   -80.0000    -0.0016     0.0005     0.0403    -0.8000    13.0000     5.5000     5.5000    15.0000    -1.0055     1.5000    75.0000     1.0000    81.151
     87    36.3000     45.000  15595.000  50907.000    117.000    259.000    116.000    110.000    148.000    132.000    107.000    135.000    182.000    157.000    310.000    133.000    163.000     94.000    139.000    129.000    145.000     92.000     98.000    101.000    128.000    134.000    115.000    111.000    110.000     97.000    134.000    140.000    111.000    148.000    136.000    171.000    158.000    157.000    333.000    185.000    141.000    117.000    152.000    135.000    149.000    140.000    136.000  44702.000     0.0000     0.0000    -0.0310     0.0000    -0.8000     0.0000   -80.0000    -0.0016     0.0005     0.0403    -0.8000    13.0000     5.5000     5.5000    15.0000    -1.0055     1.5000    75.0000     1.0000    81.026
     88    36.3500     45.000  15412.000  51093.000    107.000    310.000    123.000    117.000    130.000    129.000    114.000    107.000    189.000    170.000    318.000    128.000    152.000     98.000    146.000    115.000    101.000    101.000    115.000    105.000    120.000    139.000    129.000     92.000    114.000     94.000    120.000    178.000    115.000    121.000    132.000    162.000    151.000    148.000    330.000    188.000    116.000    121.000    140.000    123.000    171.000    151.000    162.000  44901.000     0.0000     0.0000    -0.0310     0.0000    -0.8000     0.0000   -80.0000    -0.0016     0.0005     0.0403    -0.8000    13.0000     5.5000     5.5000    15.0000    -1.0055     1.5000    75.0000     1.0000    80.915
     89    36.4000     45.000  15347.000  51039.000    113.000    302.000    133.000     86.000    123.000    115.000    126.000    139.000    207.000    200.000    277.000    128.000    163.000    100.000    136.000    126.000    125.000    132.000     94.000     97.000    115.000    127.000    121.000     95.000     96.000     87.000    110.000    169.000    110.000    127.000    131.000    143.000    144.000    169.000    286.000    182.000    142.000    136.000    134.000    126.000    169.000    127.000    150.000  44921.000     0.0000     0.0000    -0.0310     0.0000    -0.8000     0.0000   -80.0000    -0.0016     0.0005     0.0403    -0.8000    13.0000     5.5000     5.5000    15.0000    -1.0055     1.5000    75.0000     1.0000    80.773
     90    36.4500     45.000  15450.000  51112.000    106.000    251.000    134.000    121.000    110.000    119.000    125.000    125.000    195.000    200.000    253.000    137.000    164.000     95.000    149.000    121.000    101.000    115.000    123.000    101.000    133.000     93.000    114.000    134.000    106.000    116.000    120.000    195.000    110.000    148.000    159.000    136.000    142.000    147.000    262.000    180.000    141.000    129.000    151.000    158.000    183.000    158.000    150.000  44902.000     0.0000     0.0000    -0.0310     0.0000    -0.8000     0.0000   -80.0000    -0.0016     0.0005     0.0403    -0.8000    13.0000     5.5000     5.5000    15.0000    -1.0055     1.5000    75.0000     1.0000    80.643
     91    36.5000     45.000  15396.000  51200.000    122.000    225.000    140.000    103.000    102.000    115.000    122.000    116.000    163.000    264.000    292.000    137.000    156.000    117.000    149.000    117.000    101.000    131.000    101.000    108.000    146.000    115.000    141.000    108.000    115.000    101.000    128.000    198.000    116.000    133.000    154.000    157.000    128.000    150.000    276.000    179.000    147.000    142.000    140.000    166.000    162.000    149.000    147.000  44921.000     0.0000     0.0000    -0.0310     0.0000    -0.8000     0.0000   -80.0000    -0.0016     0.0005     0.0403    -0.8000    13.0000     5.5000     5.5000    15.0000    -1.0055     1.5000    75.0000     1.0000    80.487
     92    36.5500     45.000  15439.000  51139.000    126.000    243.000    150.000    108.000     92.000     97.000    134.000    118.000    146.000    236.000    230.000    162.000    144.000    128.000    169.000    131.000     92.000    153.000    103.000    100.000    110.000    101.000    135.000    135.000     92.000    113.000    118.000    173.000    120.000    154.000    123.000    154.000    143.000    156.000    256.000    172.000    153.000    147.000    159.000    148.000    175.000    149.000    170.000  44921.000     0.0000     0.0000    -0.0310     0.0000    -0.8000     0.0000   -80.0000    -0.0016     0.0005     0.0403    -0.8000    13.0000     5.5000     5.5000    15.0000    -1.0055     1.5000    75.0000     1.0000    80.309
     93    36.6000     45.000  15275.000  51096.000    149.000    189.000    154.000    106.000     95.000    104.000    109.000    113.000    140.000    269.000    234.000    136.000    149.000    134.000    161.000    129.000    102.000    111.000    107.000    103.000    125.000     99.000    150.000    112.000    103.000    111.000    118.000    207.000    121.000    121.000    144.000    169.000    154.000    147.000    266.000    199.000    130.000    154.000    139.000    168.000    174.000    134.000    156.000  44901.000     0.0000     0.0000    -0.0310     0.0000    -0.8000     0.0000   -80.0000    -0.0016     0.0005     0.0403    -0.8000    13.0000     5.5000     5.5000    15.0000    -1.0055     1.5000    75.0000     1.0000    80.139
     94    36.6500     45.000  15488.000  50802.000    148.000    169.000    133.000    113.000     98.000     98.000    142.000    138.000    149.000    242.000    204.000    144.000    143.000    107.000    188.000    129.000     90.000    130.000    111.000    112.000    107.000    107.000    140.000    128.000    108.000    112.000    124.000    204.000    114.000    148.000    140.000    133.000    124.000    167.000    234.000    145.000    117.000    148.000    155.000    162.000    177.000    148.000    150.000  44722.000     0.0000     0.0000    -0.0310     0.0000    -0.8000     0.0000   -80.0000    -0.0016     0.0005     0.0403    -0.8000    13.0000     5.5000     5.5000    15.0000    -1.0055     1.5000    75.0000     1.0000    79.953
     95    36.7000     45.000  15501.000  50835.000    185.000    134.000    136.000    112.000    105.000    106.000    133.000    141.000    106.000    263.000    202.000    159.000    121.000     94.000    178.000    120.000    100.000    109.000    102.000    116.000    101.000    132.000    140.000    127.000    124.000    134.000    108.000    204.000    104.000    143.000    147.000    140.000    143.000    157.000    222.000    164.000    148.000    126.000    154.000    158.000    190.000    139.000    166.000  44742.000     0.0000     0.0000    -0.0310     0.0000    -0.8000     0.0000   -80.0000    -0.0016     0.0005     0.0403    -0.8000    13.0000     5.5000     5.5000    15.0000    -1.0055     1.5000    75.0000     1.0000    79.769
     96    36.7500     45.000  15535.000  50654.000    224.000    148.000    129.000    106.000     95.000     94.000    140.000    128.000    127.000    242.000    160.000    139.000    116.000     97.000    200.000    112.000     95.000    119.000    106.000     96.000    109.000    126.000    168.000     93.000    114.000    115.000    114.000    230.000    123.000    150.000    147.000    151.000    113.000    161.000    227.000    159.000    140.000    116.000    110.000    153.000    156.000    151.000    153.000  44702.000     0.0000     0.0000    -0.0310     0.0000    -0.8000     0.0000   -80.0000    -0.0016     0.0005     0.0403    -0.8000    13.0000     5.5000     5.5000    15.0000    -1.0055     1.5000    75.0000     1.0000    79.570
     97    36.8000     45.000  15433.000  51039.000    244.000    157.000    136.000    118.000    100.000     99.000    170.000    147.000    122.000    185.000    186.000    158.000    127.000    106.000    204.000    138.000     95.000    124.000     88.000    112.000    116.000    120.000    160.000    101.000    127.000    140.000    120.000    254.000    112.000    138.000    134.000    144.000    140.000    137.000    211.000    133.000    144.000    141.000    138.000    138.000    161.000    141.000    151.000  44922.000     0.0000     0.0000    -0.0310     0.0000    -0.8000     0.0000   -80.0000    -0.0016     0.0005     0.0403    -0.8000    13.0000     5.5000     5.5000    15.0000    -1.0055     1.5000    75.0000     1.0000    79.364
     98    36.8500     45.000  15361.000  51244.000    292.000    162.000    140.000    110.000     92.000    107.000    169.000    141.000    121.000    194.000    177.000    168.000    138.000    100.000    223.000     96.000    102.000    101.000    114.000     86.000    106.000    139.000    184.000    138.000    134.000    118.000    113.000    269.000    119.000    162.000    146.000    152.000    149.000    149.000    216.000    160.000    149.000    126.000    158.000    153.000    167.000    152.000    150.000  44902.000     0.0000     0.0000    -0.0310     0.0000    -0.8000     0.0000   -80.0000    -0.0016     0.0005     0.0403    -0.8000    13.0000     5.5000     5.5000    15.0000    -1.0055     1.5000    75.0000     1.0000    79.152
     99    36.9000     45.000  15237.000  51229.000    291.000    177.000    149.000    114.000    106.000    111.000    189.000    171.000    116.000    159.000    154.000    169.000    124.000     75.000    223.000    114.000     99.000    125.000     98.000    110.000     91.000    138.000    156.000    119.000    132.000    113.000     94.000    262.000    115.000    152.000    130.000    159.000    131.000    170.000    220.000    157.000    139.000    136.000    142.000    188.000    161.000    169.000    159.000  44922.000     0.0000     0.0000    -0.0310     0.0000    -0.8000     0.0000   -80.0000    -0.0016     0.0005     0.0403    -0.8000    13.0000     5.5000     5.5000    15.0000    -1.0055     1.5000    75.0000     1.0000    78.915
    100    36.9500     45.000  15615.000  51237.000    299.000    183.000    160.000    110.000    116.000    101.000    176.000    141.000    144.000    160.000    134.000    156.000    116.000     92.000    200.000    129.000    103.000    117.000     93.000     89.000    123.000    176.000    179.000    101.000     95.000    131.000    116.000    240.000    133.000    188.000    131.000    148.000    136.000    182.000    193.000    152.000    163.000    159.000    138.000    140.000    167.000    158.000    147.000  44922.000     0.0000     0.0000    -0.0310     0.0000    -0.8000     0.0000   -80.0000    -0.0016     0.0005     0.0403    -0.8000    13.0000     5.5000     5.5000    15.0000    -1.0055     1.5000    75.0000     1.0000    78.726
    101    37.0000     45.000  15469.000  51086.000    306.000    194.000    156.000    144.000    104.000    104.000    201.000    177.000    142.000    137.000    123.000    161.000    129.000    106.000    224.000    131.000    108.000    121.000    118.000    131.000     92.000    186.000    167.000    108.000    118.000    146.000    112.000    256.000    109.000    159.000    143.000    145.000    121.000    165.000    172.000    160.000    144.000    139.000    130.000    157.000    141.000    139.000    157.000  44703.000     0.0000     0.0000    -0.0310     0.0000    -0.8000     0.0000   -80.0000    -0.0016     0.0005     0.0403    -0.8000    13.0000     5.5000     5.5000    15.0000    -1.0055     1.5000    75.0000     1.0000    78.512
    102    37.0500     45.000  15578.000  51144.000    277.000    194.000    158.000    101.000    119.000    109.000    202.000    173.000    141.000    120.000    110.000    175.000    134.000    101.000    223.000    140.000    108.000     98.000    110.000     98.000    112.000    183.000    159.000    111.000    116.000    141.000    112.000    293.000    120.000    151.000    149.000    171.000    138.000    171.000    193.000    165.000    156.000    156.000    123.000    159.000    181.000    141.000    130.000  44722.000     0.0000     0.0000    -0.0310     0.0000    -0.8000     0.0000   -80.0000    -0.0016     0.0005     0.0403    -0.8000    13.0000     5.5000     5.5000    15.0000    -1.0055     1.5000    75.0000     1.0000    78.277
    103    37.1000     45.000  15661.000  51142.000    248.000    223.000    211.000    108.000    146.000     92.000    177.000    170.000    170.000    138.000    106.000    140.000    113.000    100.000    205.000    125.000    100.000     96.000    118.000    106.000    133.000    195.000    155.000    117.000    103.000    157.000    122.000    289.000    124.000    156.000    137.000    169.000    147.000    161.000    190.000    130.000    139.000    149.000    158.000    143.000    147.000    152.000    155.000  44722.000     0.0000     0.0000    -0.0310     0.0000    -0.8000     0.0000   -80.0000    -0.0016     0.0005     0.0403    -0.8000    13.0000     5.5000     5.5000    15.0000    -1.0055     1.5000    75.0000     1.0000    78.042
    104    37.1500     45.000  15458.000  51433.000    218.000    210.000    218.000    111.000    128.000     98.000    183.000    182.000    199.000    130.000    104.000    153.000    142.000    106.000    187.000    107.000    110.000    102.000    113.000    105.000     93.000    216.000    140.000    128.000    139.000    168.000    111.000    300.000    123.000    153.000    151.000    151.000    139.000    172.000    197.000    162.000    171.000    156.000    142.000    170.000    145.000    158.000    141.000  44901.000     0.0000     0.0000    -0.0310     0.0000    -0.8000     0.0000   -80.0000    -0.0016     0.0005     0.0403    -0.8000    13.0000     5.5000     5.5000    15.0000    -1.0055     1.5000    75.0000     1.0000    77.810
    105    37.2000     45.000  15483.000  51275.000    181.000    213.000    274.000    108.000    151.000     87.000    165.000    179.000    218.000    131.000    105.000    141.000    140.000     87.000    202.000    115.000    108.000     81.000    103.000    113.000     91.000    225.000    155.000     99.000    117.000    163.000    116.000    308.000    125.000    175.000    149.000    176.000    131.000    164.000    212.000    169.000    143.000    145.000    147.000    144.000    169.000    166.000    142.000  44742.000     0.0000     0.0000    -0.0310     0.0000    -0.8000     0.0000   -80.0000    -0.0016     0.0005     0.0403    -0.8000    13.0000     5.5000     5.5000    15.0000    -1.0055     1.5000    75.0000     1.0000    77.584
    106    37.2500     45.000  15487.000  51249.000    165.000    199.000    307.000    113.000    163.000    105.000    133.000    186.000    240.000    140.000    116.000    138.000    138.000     88.000    218.000    127.000    101.000     94.000    115.000    142.000     98.000    217.000    125.000    113.000    103.000    147.000    101.000    302.000    131.000    149.000    158.000    172.000    142.000    189.000    207.000    149.000    138.000    137.000    146.000    140.000    145.000    174.000    135.000  44703.000     0.0000     0.0000    -0.0310     0.0000    -0.8000     0.0000   -80.0000    -0.0016     0.0005     0.0403    -0.8000    13.0000     5.5000     5.5000    15.0000    -1.0055     1.5000    75.0000     1.0000    77.363
    107    37.3000     45.000  15461.000  51295.000    134.000    213.000    343.000    125.000    163.000     91.000    145.000    203.000    247.000    151.000    118.000    136.000    134.000     96.000    216.000    125.000     88.000     88.000    132.000    114.000    106.000    235.000    123.000    116.000    132.000    179.000    114.000    275.000    122.000    129.000    158.000    153.000    124.000    170.000    170.000    151.000    136.000    144.000    136.000    177.000    132.000    176.000    173.000  44702.000     0.0000     0.0000    -0.0310     0.0000    -0.8000     0.0000   -80.0000    -0.0016     0.0005     0.0403    -0.8000    13.0000     5.5000     5.5000    15.0000    -1.0055     1.5000    75.0000     1.0000    77.087
    108    37.3500     45.000  15579.000  51463.000    126.000    188.000    368.000    138.000    202.000    106.000    138.000    241.000    257.000    151.000    125.000    144.000    146.000     99.000    199.000    128.000     95.000     93.000    137.000    119.000     90.000    230.000    112.000    115.000    134.000    169.000    123.000    254.000    134.000    158.000    127.000    181.000    119.000    181.000    189.000    138.000    137.000    147.000    162.000    174.000    161.000    164.000    142.000  44722.000     0.0000     0.0000    -0.0310     0.0000    -0.8000     0.0000   -80.0000    -0.0016     0.0005     0.0403    -0.8000    13.0000     5.5000     5.5000    15.0000    -1.0055     1.5000    75.0000     1.0000    76.833
    109    37.4000     45.000  15443.000  51408.000    118.000    146.000    516.000    104.000    164.000     91.000    122.000    237.000    218.000    113.000    145.000    128.000    148.000    109.000    202.000    148.000     91.000     96.000    149.000    113.000     84.000    262.000    123.000    115.000    113.000    172.000     97.000    276.000    119.000    171.000    141.000    165.000    125.000    209.000    162.000    144.000    149.000    143.000    145.000    163.000    151.000    140.000    159.000  44722.000     0.0000     0.0000    -0.0310     0.0000    -0.8000     0.0000   -80.0000    -0.0016     0.0005     0.0403    -0.8000    13.0000     5.5000     5.5000    15.0000    -1.0055     1.5000    75.0000     1.0000    76.585
    110    37.4500     45.000  15433.000  51709.000    103.000    146.000    487.000    106.000    213.000    125.000    123.000    253.000    219.000    148.000    137.000    118.000    151.000     96.000    192.000    119.000     98.000     89.000    127.000    125.000    127.000    285.000    115.000    113.000    108.000    178.000    112.000    242.000    148.000    156.000    139.000    192.000    119.000    220.000    187.000    134.000    144.000    154.000    138.000    146.000    142.000    161.000    152.000  44922.000     0.0000     0.0000    -0.0310     0.0000    -0.8000     0.0000   -80.0000    -0.0016     0.0005     0.0403    -0.8000    13.0000     5.5000     5.5000    15.0000    -1.0055     1.5000    75.0000     1.0000    76.343
    111    37.5000     45.000  15486.000  52064.000    120.000    143.000    609.000    106.000    226.000    104.000    140.000    279.000    203.000    189.000    213.000    134.000    127.000    109.000    225.000    124.000     98.000    100.000    161.000    117.000     99.000    271.000    124.000    111.000    107.000    180.000    109.000    270.000    136.000    143.000    123.000    204.000    109.000    217.000    179.000    156.000    145.000    141.000    165.000    154.000    145.000    182.000    166.000  44901.000     0.0000     0.0000    -0.0310     0.0000    -0.8000     0.0000   -80.0000    -0.0016     0.0005     0.0403    -0.8000    13.0000     5.5000     5.5000    15.0000    -1.0055     1.5000    75.0000     1.0000    76.123
    112    37.5500     45.000  15374.000  52080.000    108.000    132.000    645.000    130.000    202.000    118.000    124.000    300.000    168.000    219.000    255.000    122.000    117.000     96.000    217.000    137.000    102.000    113.000    171.000    124.000    107.000    258.000    106.000    113.000    104.000    155.000    119.000    229.000    126.000    180.000    129.000    185.000    121.000    222.000    172.000    130.000    146.000    154.000    141.000    152.000    159.000    178.000    173.000  44921.000     0.0000     0.0000    -0.0310     0.0000    -0.8000     0.0000   -80.0000    -0.0016     0.0005     0.0403    -0.8000    13.0000     5.5000     5.5000    15.0000    -1.0055     1.5000    75.0000     1.0000    75.851
    113    37.6000     45.000  15453.000  52015.000     90.000    147.000    550.000     93.000    205.000    109.000    126.000    282.000    175.000    271.000    253.000    150.000    134.000    111.000    188.000    137.000     86.000     84.000    159.000    145.000     95.000    245.000    110.000    133.000     94.000    171.000    110.000    217.000    132.000    139.000    149.000    195.000    143.000    260.000    166.000    134.000    169.000    184.000    144.000    179.000    145.000    171.000    134.000  44901.000     0.0000     0.0000    -0.0310     0.0000    -0.8000     0.0000   -80.0000    -0.0016     0.0005     0.0403    -0.8000    13.0000     5.5000     5.5000    15.0000    -1.0055     1.5000    75.0000     1.0000    75.616
    114    37.6500     45.000  15499.000  51882.000     86.000    117.000    481.000     97.000    163.000     96.000    135.000    301.000    154.000    368.000    339.000    154.000    140.000    112.000    192.000    131.000     98.000    115.000    148.000    127.000     99.000    226.000    119.000    127.000    110.000    173.000    112.000    248.000    141.000    132.000    137.000    185.000    134.000    234.000    190.000    140.000    154.000    157.000    162.000    169.000    137.000    197.000    143.000  44702.000     0.0000     0.0000    -0.0310     0.0000    -0.8000     0.0000   -80.0000    -0.0016     0.0005     0.0403    -0.8000    13.0000     5.5000     5.5000    15.0000    -1.0055     1.5000    75.0000     1.0000    75.361
    115    37.7000     45.000  15368.000  52162.000     96.000    127.000    428.000     91.000    191.000    107.000    127.000    354.000    142.000    448.000    375.000    132.000    121.000    114.000    208.000    146.000    108.000     92.000    168.000    154.000    103.000    230.000    124.000    116.000    128.000    156.000    121.000    186.000    144.000    131.000    154.000    196.000    114.000    225.000    171.000    141.000    119.000    135.000    151.000    172.000    158.000    187.000    150.000  44921.000     0.0000     0.0000    -0.0310     0.0000    -0.8000     0.0000   -80.0000    -0.0016     0.0005     0.0403    -0.8000    13.0000     5.5000     5.5000    15.0000    -1.0055     1.5000    75.0000     1.0000    75.130
    116    37.7500     45.000  15748.000  52256.000    108.000     91.000    337.000     89.000    161.000     93.000    125.000    352.000    125.000    567.000    363.000    150.000    119.000     95.000    211.000    163.000    101.000    113.000    186.000    173.000    109.000    230.000    126.000    125.000    110.000    156.000    122.000    247.000    158.000    148.000    123.000    185.000    115.000    263.000    161.000    150.000    151.000    164.000    146.000    155.000    145.000    173.000    151.000  44921.000     0.0000     0.0000    -0.0310     0.0000    -0.8000     0.0000   -80.0000    -0.0016     0.0005     0.0403    -0.8000    13.0000     5.5000     5.5000    15.0000    -1.0055     1.5000    75.0000     1.0000    74.888
    117    37.8000     45.000  15584.000  52030.000     92.000    122.000    245.000     91.000    140.000     98.000    122.000    395.000    131.000    764.000    376.000    133.000    125.000     95.000    224.000    183.000     90.000    102.000    180.000    154.000     89.000    214.000    106.000    139.000    101.000    147.000    118.000    205.000    136.000    112.000    111.000    175.000    109.000    288.000    191.000    149.000    128.000    153.000    162.000    162.000    158.000    156.000    157.000  44702.000     0.0000     0.0000    -0.0310     0.0000    -0.8000     0.0000   -80.0000    -0.0016     0.0005     0.0403    -0.8000    13.0000     5.5000     5.5000    15.0000    -1.0055     1.5000    75.0000     1.0000    74.672
    118    37.8500     45.000  15366.000  52174.000    100.000    154.000    198.000     86.000    160.000     85.000    125.000    369.000    119.000    883.000    332.000    125.000    123.000    110.000    202.000    176.000    118.000    133.000    148.000    164.000     83.000    210.000    126.000    125.000     98.000    120.000    127.000    229.000    152.000    133.000    139.000    173.000    125.000    297.000    177.000    128.000    134.000    161.000    160.000    163.000    161.000    156.000    165.000  44722.000     0.0000     0.0000    -0.0310     0.0000    -0.8000     0.0000   -80.0000    -0.0016     0.0005     0.0403    -0.8000    13.0000     5.5000     5.5000    15.0000    -1.0055     1.5000    75.0000     1.0000    74.422
    119    37.9000     45.000  15105.000  52255.000    109.000    114.000    165.000     98.000    129.000     98.000    133.000    373.000    137.000   1047.000    310.000    113.000    123.000    108.000    187.000    225.000    124.000    122.000    131.000    184.000     94.000    190.000    145.000    104.000    121.000    140.000    104.000    217.000    148.000    145.000    130.000    201.000    139.000    287.000    187.000    130.000    125.000    154.000    153.000    154.000    163.000    134.000    158.000  44702.000     0.0000     0.0000    -0.0310     0.0000    -0.8000     0.0000   -80.0000    -0.0016     0.0005     0.0403    -0.8000    13.0000     5.5000     5.5000    15.0000    -1.0055     1.5000    75.0000     1.0000    74.160
    120    37.9500     45.000  15460.000  52518.000     80.000    148.000    152.000    113.000    119.000    107.000    131.000    340.000    142.000   1181.000    296.000    131.000    108.000    121.000    202.000    183.000    111.000    111.000    150.000    212.000     96.000    134.000    131.000    111.000     98.000    137.000    126.000    188.000    141.000    116.000    144.000    239.000    109.000    323.000    207.000    116.000    149.000    175.000    156.000    141.000    136.000    138.000    168.000  44901.000     0.0000     0.0000    -0.0310     0.0000    -0.8000     0.0000   -80.0000    -0.0016     0.0005     0.0403    -0.8000    13.0000     5.5000     5.5000    15.0000    -1.0055     1.5000    75.0000     1.0000    73.936
    121    38.0000     45.000  15410.000  53061.000    121.000    149.000    138.000    117.000    118.000     91.000    135.000    316.000    118.000   1212.000    237.000    126.000    118.000    107.000    172.000    213.000    115.000    742.000    128.000    210.000    100.000    140.000    116.000    140.000    108.000    125.000    107.000    167.000    136.000    111.000    132.000    240.000    139.000    335.000    172.000    132.000    157.000    166.000    161.000    156.000    124.000    135.000    158.000  44921.000     0.0000     0.0000    -0.0310     0.0000    -0.8000     0.0000   -80.0000    -0.0016     0.0005     0.0403    -0.8000    13.0000     5.5000     5.5000    15.0000    -1.0055     1.5000    75.0000     1.0000    73.698
# Sum of Counts = 1866963
# Center of Mass = 35.002837+/-0.036251
# Full Width Half-Maximum = 3.491385+/-0.006927
# 9:41:53 PM  8/18/2016   scan completed.
