# scan = 47
# date = 8/18/2016
# time = 6:18:30 PM
# proposal = IPTS-16819
# experiment = Investing the magnetic structure and moment of BaFe4O7 and K-doped
# experiment_number = 500
# command = scan 2theta 8 14 0.05 preset time 45
# builtin_command = scan 2theta 8 14 0.05 preset time 45
# users = Hans-Conrad Zur Loye
# local_contact = Stuart Calder
# scan_title = KBaFe4O7, Zur Loye, Ge115, op-21-12, T= 75 C - After heating
# monochromator = 
# analyzer = 
# sense = -+-
# collimation = 48-40-40-120
# samplename = BaFe4O7 and K1.15Ba0.43Fe2O7
# sampletype = powder
# samplemosaic = 30.000000
# latticeconstants = 5.000000,5.000000,5.000000,90.000000,90.000000,90.000000
# ubmatrix = 0.000000,0.000000,0.000000,0.000000,0.000000,0.000000,0.000000,0.000000,0.000000
# mode = 3
# ubconf = UB15Aug2016_102130AM.ini
# preset_type = normal 
# preset_channel = time
# preset_value = 45.000000
# def_x = 2theta
# def_y = monitor
# col_headers = 
#   Pt.     2theta       time    monitor   detector     anode1     anode2     anode3     anode4     anode5     anode6     anode7     anode8     anode9    anode10    anode11    anode12    anode13    anode14    anode15    anode16    anode17    anode18    anode19    anode20    anode21    anode22    anode23    anode24    anode25    anode26    anode27    anode28    anode29    anode30    anode31    anode32    anode33    anode34    anode35    anode36    anode37    anode38    anode39    anode40    anode41    anode42    anode43    anode44         m1       marc     mtrans   coltrans     colrot       coll   pgfilter  colltrans         s1        sgl        sgu    slit_bt    slit_lf    slit_rt    slit_tp        stl        stu furnace_setpoint furnace_ramp furnace_temp
      1     8.0000     45.000  15596.000  51762.000     83.000    101.000     91.000    100.000    254.000    267.000     74.000     94.000    126.000    144.000    328.000    111.000    134.000    359.000    111.000    200.000    121.000    142.000    355.000    113.000    443.000    293.000    123.000    102.000    111.000    187.000    162.000     90.000    100.000    177.000    170.000     96.000    223.000    132.000    126.000    122.000    187.000    131.000    202.000    119.000    124.000    151.000    181.000  44702.000     0.0000     0.0000    -0.0310     0.0000    -0.8000     0.0000   -80.0000    -0.0016     0.0005     0.0403    -0.8000    13.0000     5.5000     5.5000    15.0000    -1.0055     1.5000    75.0000     1.0000    80.789
      2     8.0500     45.000  15260.000  52080.000     99.000     79.000     78.000     91.000    337.000    275.000     94.000     85.000    164.000    161.000    377.000    101.000    111.000    313.000    104.000    156.000    146.000    110.000    393.000    126.000    568.000    328.000    112.000    109.000    115.000    170.000    184.000     84.000    107.000    166.000    191.000    104.000    209.000    148.000    118.000    119.000    186.000    130.000    223.000    121.000    142.000    141.000    203.000  44702.000     0.0000     0.0000    -0.0310     0.0000    -0.8000     0.0000   -80.0000    -0.0016     0.0005     0.0403    -0.8000    13.0000     5.5000     5.5000    15.0000    -1.0055     1.5000    75.0000     1.0000    80.899
      3     8.1000     45.000  15464.000  52523.000    103.000     86.000     86.000    101.000    315.000    231.000     88.000     88.000    210.000    193.000    484.000    107.000    123.000    229.000    109.000    165.000    112.000    125.000    422.000     96.000    731.000    380.000    113.000    100.000    102.000    153.000    208.000    104.000    111.000    189.000    194.000    108.000    168.000    114.000    111.000     98.000    185.000    155.000    200.000    102.000    153.000    160.000    190.000  44921.000     0.0000     0.0000    -0.0310     0.0000    -0.8000     0.0000   -80.0000    -0.0016     0.0005     0.0403    -0.8000    13.0000     5.5000     5.5000    15.0000    -1.0055     1.5000    75.0000     1.0000    80.941
      4     8.1500     45.000  15630.000  52703.000    110.000     98.000     91.000    102.000    387.000    225.000     73.000     80.000    232.000    237.000    503.000    104.000    130.000    185.000    101.000    145.000    104.000    128.000    411.000    103.000    883.000    358.000    133.000    115.000    100.000    165.000    226.000    102.000    119.000    162.000    241.000    131.000    176.000    132.000    133.000    108.000    172.000    139.000    201.000    117.000    147.000    159.000    213.000  44722.000     0.0000     0.0000    -0.0310     0.0000    -0.8000     0.0000   -80.0000    -0.0016     0.0005     0.0403    -0.8000    13.0000     5.5000     5.5000    15.0000    -1.0055     1.5000    75.0000     1.0000    81.039
      5     8.2000     45.000  15186.000  52972.000     80.000     75.000     93.000     96.000    384.000    151.000     80.000     88.000    250.000    284.000    661.000    117.000    116.000    160.000    125.000    127.000    112.000    127.000    349.000    117.000   1010.000    361.000     95.000    113.000    127.000    155.000    201.000     99.000    124.000    164.000    257.000     96.000    160.000    124.000    131.000    140.000    168.000    146.000    182.000    122.000    137.000    154.000    212.000  44902.000     0.0000     0.0000    -0.0310     0.0000    -0.8000     0.0000   -80.0000    -0.0016     0.0005     0.0403    -0.8000    13.0000     5.5000     5.5000    15.0000    -1.0055     1.5000    75.0000     1.0000    81.044
      6     8.2500     45.000  15323.000  52989.000     95.000     87.000     94.000     86.000    488.000    126.000     81.000     98.000    250.000    342.000    618.000    117.000    134.000    132.000    121.000    129.000    111.000    137.000    372.000    122.000   1115.000    339.000    110.000    115.000    128.000    137.000    243.000    110.000    124.000    171.000    250.000     96.000    159.000    132.000    137.000    133.000    143.000    106.000    176.000    122.000    123.000    153.000    205.000  44722.000     0.0000     0.0000    -0.0310     0.0000    -0.8000     0.0000   -80.0000    -0.0016     0.0005     0.0403    -0.8000    13.0000     5.5000     5.5000    15.0000    -1.0055     1.5000    75.0000     1.0000    81.058
      7     8.3000     45.000  15375.000  53008.000     75.000    111.000     90.000     79.000    463.000    139.000     95.000     78.000    273.000    399.000    562.000    119.000    131.000    132.000     95.000    124.000    118.000    143.000    315.000    130.000   1094.000    271.000    123.000    115.000    109.000    112.000    228.000    106.000    134.000    149.000    274.000    141.000    149.000    142.000    149.000    108.000    167.000    117.000    160.000    133.000    134.000    143.000    238.000  44841.000     0.0000     0.0000    -0.0310     0.0000    -0.8000     0.0000   -80.0000    -0.0016     0.0005     0.0403    -0.8000    13.0000     5.5000     5.5000    15.0000    -1.0055     1.5000    75.0000     1.0000    81.048
      8     8.3500     45.000  15147.000  52435.000     96.000     99.000     96.000     94.000    432.000    110.000     86.000     81.000    268.000    388.000    493.000    113.000    176.000    141.000     89.000    112.000    133.000    129.000    238.000    116.000   1089.000    244.000    110.000    115.000    111.000    143.000    239.000     92.000    128.000    158.000    228.000     99.000    131.000    124.000    112.000    112.000    167.000    126.000    149.000    110.000    134.000    118.000    204.000  44702.000     0.0000     0.0000    -0.0310     0.0000    -0.8000     0.0000   -80.0000    -0.0016     0.0005     0.0403    -0.8000    13.0000     5.5000     5.5000    15.0000    -1.0055     1.5000    75.0000     1.0000    81.000
      9     8.4000     45.000  15458.000  52361.000     89.000    100.000     92.000     83.000    417.000    126.000     80.000     82.000    287.000    340.000    383.000    108.000    186.000    154.000    107.000    128.000    112.000    120.000    245.000     96.000    943.000    190.000    105.000    134.000    105.000    152.000    274.000     95.000    145.000    138.000    257.000    117.000    135.000    149.000    127.000    146.000    133.000    144.000    173.000    129.000    123.000    165.000    225.000  44722.000     0.0000     0.0000    -0.0310     0.0000    -0.8000     0.0000   -80.0000    -0.0016     0.0005     0.0403    -0.8000    13.0000     5.5000     5.5000    15.0000    -1.0055     1.5000    75.0000     1.0000    80.934
     10     8.4500     45.000  15304.000  52311.000     95.000    114.000     98.000    102.000    342.000    130.000     88.000     78.000    250.000    334.000    336.000    137.000    180.000    174.000    119.000    121.000     98.000    118.000    226.000    108.000    838.000    197.000     94.000    113.000    141.000    138.000    261.000     85.000    129.000    153.000    244.000    119.000    134.000    149.000    145.000    128.000    161.000    153.000    166.000    118.000    116.000    165.000    215.000  44901.000     0.0000     0.0000    -0.0310     0.0000    -0.8000     0.0000   -80.0000    -0.0016     0.0005     0.0403    -0.8000    13.0000     5.5000     5.5000    15.0000    -1.0055     1.5000    75.0000     1.0000    80.850
     11     8.5000     45.000  15318.000  51663.000     76.000    115.000     88.000     87.000    265.000    158.000     85.000     75.000    214.000    308.000    255.000    134.000    209.000    156.000    106.000    114.000    113.000    136.000    213.000    118.000    693.000    181.000    118.000    116.000    136.000    133.000    249.000    110.000    127.000    122.000    204.000    121.000    130.000    139.000    103.000    122.000    157.000    135.000    167.000    121.000    151.000    155.000    226.000  44722.000     0.0000     0.0000    -0.0310     0.0000    -0.8000     0.0000   -80.0000    -0.0016     0.0005     0.0403    -0.8000    13.0000     5.5000     5.5000    15.0000    -1.0055     1.5000    75.0000     1.0000    80.785
     12     8.5500     45.000  15471.000  51508.000     89.000    102.000     85.000     91.000    217.000    169.000     79.000     80.000    195.000    212.000    230.000    170.000    199.000    210.000     84.000    111.000    112.000    136.000    182.000    122.000    536.000    161.000    108.000    129.000    111.000    134.000    294.000    104.000    146.000    121.000    234.000    131.000     96.000    132.000    139.000    131.000    149.000    142.000    157.000    107.000    126.000    134.000    190.000  44921.000     0.0000     0.0000    -0.0310     0.0000    -0.8000     0.0000   -80.0000    -0.0016     0.0005     0.0403    -0.8000    13.0000     5.5000     5.5000    15.0000    -1.0055     1.5000    75.0000     1.0000    80.693
     13     8.6000     45.000  15535.000  51225.000     88.000    129.000    101.000     90.000    164.000    163.000     85.000     82.000    187.000    217.000    178.000    157.000    205.000    253.000    110.000    125.000    114.000    129.000    167.000     99.000    405.000    146.000    110.000    137.000    129.000    112.000    236.000    112.000    119.000    124.000    195.000    100.000    109.000    142.000    112.000    131.000    167.000    126.000    146.000    104.000    132.000    156.000    231.000  44901.000     0.0000     0.0000    -0.0310     0.0000    -0.8000     0.0000   -80.0000    -0.0016     0.0005     0.0403    -0.8000    13.0000     5.5000     5.5000    15.0000    -1.0055     1.5000    75.0000     1.0000    80.574
     14     8.6500     45.000  15570.000  51274.000     83.000    126.000     78.000    123.000    134.000    157.000     92.000     90.000    180.000    221.000    188.000    176.000    201.000    230.000    104.000    106.000    131.000    168.000    163.000    129.000    340.000    167.000    109.000    127.000    134.000    151.000    247.000    125.000    133.000    102.000    194.000    136.000    115.000    139.000    122.000    151.000    142.000    138.000    111.000    111.000    131.000    158.000    190.000  44921.000     0.0000     0.0000    -0.0310     0.0000    -0.8000     0.0000   -80.0000    -0.0016     0.0005     0.0403    -0.8000    13.0000     5.5000     5.5000    15.0000    -1.0055     1.5000    75.0000     1.0000    80.459
     15     8.7000     45.000  15417.000  51033.000     80.000    126.000     83.000     86.000    131.000    152.000     89.000     94.000    170.000    233.000    165.000    158.000    193.000    238.000    104.000    105.000    117.000    175.000    188.000    120.000    250.000    127.000    102.000    146.000    170.000    120.000    245.000    119.000    118.000    119.000    185.000    128.000    104.000    133.000    133.000    138.000    167.000    124.000    133.000     90.000    137.000    155.000    182.000  44901.000     0.0000     0.0000    -0.0310     0.0000    -0.8000     0.0000   -80.0000    -0.0016     0.0005     0.0403    -0.8000    13.0000     5.5000     5.5000    15.0000    -1.0055     1.5000    75.0000     1.0000    80.328
     16     8.7500     45.000  15360.000  50701.000     80.000    117.000     76.000     92.000    141.000    138.000     81.000     66.000    144.000    232.000    153.000    139.000    197.000    194.000     92.000    104.000    135.000    187.000    173.000    112.000    210.000    155.000    108.000    121.000    146.000    115.000    236.000    115.000    111.000    112.000    161.000    118.000    100.000    144.000    122.000    150.000    153.000    139.000    111.000    127.000    130.000    160.000    202.000  44802.000     0.0000     0.0000    -0.0310     0.0000    -0.8000     0.0000   -80.0000    -0.0016     0.0005     0.0403    -0.8000    13.0000     5.5000     5.5000    15.0000    -1.0055     1.5000    75.0000     1.0000    80.203
     17     8.8000     45.000  15314.000  50503.000     77.000    118.000     87.000     98.000    128.000    117.000     86.000     81.000    175.000    256.000    153.000    145.000    159.000    149.000    117.000    121.000    111.000    179.000    167.000    106.000    192.000    142.000    109.000    150.000    160.000    101.000    186.000     95.000    117.000    119.000    154.000    121.000    112.000    143.000    127.000    114.000    151.000    134.000    118.000    103.000    129.000    148.000    206.000  44742.000     0.0000     0.0000    -0.0310     0.0000    -0.8000     0.0000   -80.0000    -0.0016     0.0005     0.0403    -0.8000    13.0000     5.5000     5.5000    15.0000    -1.0055     1.5000    75.0000     1.0000    80.065
     18     8.8500     45.000  15585.000  50611.000     63.000    104.000    104.000    100.000    111.000    120.000     95.000     69.000    171.000    270.000    135.000     99.000    132.000    142.000     99.000    111.000    124.000    183.000    155.000     96.000    165.000    166.000    127.000    120.000    164.000    109.000    210.000    134.000    123.000    112.000    153.000    138.000    101.000    119.000    115.000    173.000    157.000    134.000    115.000     89.000    122.000    172.000    188.000  44922.000     0.0000     0.0000    -0.0310     0.0000    -0.8000     0.0000   -80.0000    -0.0016     0.0005     0.0403    -0.8000    13.0000     5.5000     5.5000    15.0000    -1.0055     1.5000    75.0000     1.0000    79.932
     19     8.9000     45.000  15529.000  51845.000    103.000    101.000     84.000    105.000    149.000    109.000     99.000     88.000    163.000    238.000    159.000    110.000    147.000    166.000    138.000    131.000    134.000   1264.000    155.000    109.000    170.000    150.000    133.000    111.000    216.000     97.000    195.000     97.000    116.000    129.000    148.000    134.000    143.000    128.000     95.000    139.000    148.000    112.000    139.000     91.000    131.000    172.000    177.000  44922.000     0.0000     0.0000    -0.0310     0.0000    -0.8000     0.0000   -80.0000    -0.0016     0.0005     0.0403    -0.8000    13.0000     5.5000     5.5000    15.0000    -1.0055     1.5000    75.0000     1.0000    79.748
     20     8.9500     45.000  15456.000  50949.000     79.000     93.000     96.000     99.000    150.000    104.000     78.000     84.000    153.000    228.000    142.000    120.000    104.000    134.000    118.000    124.000    128.000    785.000    136.000    100.000    156.000    127.000    130.000    126.000    180.000    107.000    196.000    117.000    121.000    100.000    156.000    111.000    107.000    144.000    134.000    145.000    158.000    127.000    123.000    114.000    149.000    165.000    199.000  44702.000     0.0000     0.0000    -0.0310     0.0000    -0.8000     0.0000   -80.0000    -0.0016     0.0005     0.0403    -0.8000    13.0000     5.5000     5.5000    15.0000    -1.0055     1.5000    75.0000     1.0000    79.586
     21     9.0000     45.000  15352.000  50589.000     93.000     92.000     88.000    100.000    150.000     95.000    100.000    136.000    135.000    203.000    163.000    107.000    114.000    138.000    161.000    132.000    142.000    155.000    120.000    127.000    201.000    152.000    134.000    119.000    174.000    111.000    157.000    116.000     98.000    109.000    143.000    137.000    102.000    121.000    137.000    118.000    148.000    145.000    121.000    102.000    136.000    154.000    181.000  44922.000     0.0000     0.0000    -0.0310     0.0000    -0.8000     0.0000   -80.0000    -0.0016     0.0005     0.0403    -0.8000    13.0000     5.5000     5.5000    15.0000    -1.0055     1.5000    75.0000     1.0000    79.397
     22     9.0500     45.000  15304.000  50371.000     77.000     88.000    107.000    125.000    164.000    102.000     91.000    111.000    136.000    145.000    153.000    131.000    106.000    140.000    177.000    142.000    138.000    139.000    125.000    119.000    196.000    157.000    140.000    121.000    194.000     97.000    163.000     86.000    120.000    133.000    125.000    131.000    109.000    153.000    135.000    133.000    118.000    137.000    123.000     95.000    145.000    147.000    195.000  44702.000     0.0000     0.0000    -0.0310     0.0000    -0.8000     0.0000   -80.0000    -0.0016     0.0005     0.0403    -0.8000    13.0000     5.5000     5.5000    15.0000    -1.0055     1.5000    75.0000     1.0000    79.224
     23     9.1000     45.000  15503.000  50337.000     80.000     95.000     89.000     91.000    148.000    105.000    105.000    150.000    112.000    159.000    142.000    133.000    112.000    154.000    181.000    109.000    127.000    157.000    140.000    118.000    234.000    141.000    143.000    105.000    190.000     95.000    130.000    109.000    102.000    126.000    140.000    130.000    129.000    132.000    129.000    123.000    111.000    146.000    128.000     94.000    132.000    170.000    189.000  44702.000     0.0000     0.0000    -0.0310     0.0000    -0.8000     0.0000   -80.0000    -0.0016     0.0005     0.0403    -0.8000    13.0000     5.5000     5.5000    15.0000    -1.0055     1.5000    75.0000     1.0000    79.036
     24     9.1500     45.000  15329.000  50292.000     74.000     79.000     90.000    118.000    152.000     86.000     99.000    162.000    120.000    111.000    166.000    154.000    107.000    140.000    182.000    115.000    125.000    142.000    148.000    110.000    260.000    135.000    153.000    108.000    183.000     97.000    132.000    111.000     98.000    138.000    100.000    139.000    113.000    117.000     93.000    114.000    142.000    148.000    101.000     96.000    152.000    157.000    203.000  44722.000     0.0000     0.0000    -0.0310     0.0000    -0.8000     0.0000   -80.0000    -0.0016     0.0005     0.0403    -0.8000    13.0000     5.5000     5.5000    15.0000    -1.0055     1.5000    75.0000     1.0000    78.843
     25     9.2000     45.000  15340.000  50229.000     73.000     77.000     72.000    120.000    134.000     91.000    105.000    132.000     97.000    123.000    127.000    197.000    106.000    127.000    167.000    146.000    112.000    154.000    160.000    110.000    270.000    133.000    162.000    136.000    144.000    108.000    153.000    107.000     97.000    110.000    126.000    131.000    122.000    121.000     96.000    144.000    135.000    152.000    102.000     86.000    131.000    173.000    158.000  44702.000     0.0000     0.0000    -0.0310     0.0000    -0.8000     0.0000   -80.0000    -0.0016     0.0005     0.0403    -0.8000    13.0000     5.5000     5.5000    15.0000    -1.0055     1.5000    75.0000     1.0000    78.655
     26     9.2500     45.000  15514.000  50501.000     85.000    110.000    112.000    122.000    139.000     82.000    117.000    161.000    107.000    124.000    126.000    212.000     92.000    121.000    155.000    118.000    124.000    138.000    155.000    114.000    303.000    146.000    165.000    116.000    156.000     95.000    129.000     94.000    107.000    120.000    113.000    116.000    122.000    120.000    110.000    117.000    110.000    137.000    108.000     99.000    136.000    181.000    166.000  44921.000     0.0000     0.0000    -0.0310     0.0000    -0.8000     0.0000   -80.0000    -0.0016     0.0005     0.0403    -0.8000    13.0000     5.5000     5.5000    15.0000    -1.0055     1.5000    75.0000     1.0000    78.446
     27     9.3000     45.000  15289.000  50508.000     88.000     84.000     87.000    137.000    137.000     78.000    102.000    165.000     81.000    128.000    130.000    235.000    122.000    100.000    151.000    164.000    111.000    127.000    177.000    111.000    325.000    137.000    150.000    124.000    141.000    106.000     97.000     76.000     97.000    130.000    115.000    120.000    110.000    117.000    110.000    103.000    133.000    167.000    126.000    107.000    145.000    152.000    183.000  44922.000     0.0000     0.0000    -0.0310     0.0000    -0.8000     0.0000   -80.0000    -0.0016     0.0005     0.0403    -0.8000    13.0000     5.5000     5.5000    15.0000    -1.0055     1.5000    75.0000     1.0000    78.213
     28     9.3500     45.000  15388.000  50610.000     88.000    108.000     91.000    143.000    145.000     82.000    117.000    190.000     90.000    141.000    122.000    257.000    115.000     75.000    152.000    122.000    126.000     99.000    191.000    142.000    327.000    136.000    157.000    108.000    146.000    117.000    105.000    104.000    128.000    123.000    111.000    120.000    122.000    105.000    105.000    137.000    134.000    169.000    110.000     95.000    140.000    125.000    169.000  44921.000     0.0000     0.0000    -0.0310     0.0000    -0.8000     0.0000   -80.0000    -0.0016     0.0005     0.0403    -0.8000    13.0000     5.5000     5.5000    15.0000    -1.0055     1.5000    75.0000     1.0000    78.028
     29     9.4000     45.000  15579.000  50630.000     73.000    103.000     77.000    148.000    140.000     84.000    102.000    154.000     98.000    106.000    114.000    300.000    134.000     84.000    134.000    135.000    130.000    125.000    162.000    140.000    290.000    151.000    170.000    131.000    129.000    113.000    110.000    111.000    124.000    144.000    118.000    110.000    105.000    117.000    118.000    148.000    121.000    177.000    111.000     98.000    155.000    161.000    154.000  44921.000     0.0000     0.0000    -0.0310     0.0000    -0.8000     0.0000   -80.0000    -0.0016     0.0005     0.0403    -0.8000    13.0000     5.5000     5.5000    15.0000    -1.0055     1.5000    75.0000     1.0000    77.836
     30     9.4500     45.000  15465.000  50358.000     75.000    128.000     71.000    129.000    143.000     97.000     80.000    199.000     88.000    107.000    113.000    274.000    132.000     89.000    135.000    140.000    108.000    136.000    184.000    160.000    283.000    152.000    158.000    106.000     88.000    100.000    102.000    105.000    108.000    114.000    113.000    121.000    147.000     97.000    121.000    121.000    117.000    188.000    112.000    105.000    164.000    191.000    155.000  44702.000     0.0000     0.0000    -0.0310     0.0000    -0.8000     0.0000   -80.0000    -0.0016     0.0005     0.0403    -0.8000    13.0000     5.5000     5.5000    15.0000    -1.0055     1.5000    75.0000     1.0000    77.611
     31     9.5000     45.000  15420.000  50570.000     86.000    121.000     91.000    147.000    159.000     80.000     82.000    135.000     88.000    101.000    117.000    244.000    137.000     97.000    103.000    114.000    114.000    148.000    153.000    191.000    277.000    138.000    157.000    141.000    122.000    104.000    105.000    114.000    105.000    119.000    122.000    111.000    134.000    118.000    120.000    136.000    125.000    216.000    108.000    109.000    164.000    141.000    155.000  44921.000     0.0000     0.0000    -0.0310     0.0000    -0.8000     0.0000   -80.0000    -0.0016     0.0005     0.0403    -0.8000    13.0000     5.5000     5.5000    15.0000    -1.0055     1.5000    75.0000     1.0000    77.395
     32     9.5500     45.000  15378.000  50479.000     63.000    124.000     99.000    157.000    157.000     98.000     98.000    137.000    113.000    112.000    129.000    237.000    131.000     95.000     97.000    112.000    130.000    121.000    131.000    157.000    263.000    122.000    139.000    103.000    110.000    119.000     99.000    130.000     91.000    124.000     98.000    121.000    137.000    117.000    117.000    133.000    110.000    221.000    127.000    100.000    154.000    166.000    159.000  44921.000     0.0000     0.0000    -0.0310     0.0000    -0.8000     0.0000   -80.0000    -0.0016     0.0005     0.0403    -0.8000    13.0000     5.5000     5.5000    15.0000    -1.0055     1.5000    75.0000     1.0000    77.201
     33     9.6000     45.000  15264.000  50614.000     68.000    133.000     75.000    170.000    195.000     79.000    107.000    118.000    120.000    105.000    141.000    204.000    134.000     81.000    102.000     95.000    120.000    138.000    137.000    232.000    220.000    129.000    130.000    107.000    128.000     92.000    100.000    124.000    123.000    123.000    116.000    130.000    151.000    143.000    137.000    138.000    119.000    240.000    134.000     91.000    153.000    157.000    174.000  44901.000     0.0000     0.0000    -0.0310     0.0000    -0.8000     0.0000   -80.0000    -0.0016     0.0005     0.0403    -0.8000    13.0000     5.5000     5.5000    15.0000    -1.0055     1.5000    75.0000     1.0000    76.994
     34     9.6500     45.000  15304.000  50654.000     71.000    144.000    110.000    179.000    209.000     91.000     73.000    109.000    157.000    111.000    149.000    174.000    140.000     74.000    105.000    111.000    131.000    152.000    125.000    222.000    227.000    144.000    109.000    113.000    134.000     83.000     90.000    108.000     96.000    116.000     91.000    138.000    167.000    133.000    128.000    147.000     98.000    270.000    118.000    121.000    143.000    177.000    145.000  44921.000     0.0000     0.0000    -0.0310     0.0000    -0.8000     0.0000   -80.0000    -0.0016     0.0005     0.0403    -0.8000    13.0000     5.5000     5.5000    15.0000    -1.0055     1.5000    75.0000     1.0000    76.785
     35     9.7000     45.000  15354.000  50572.000     83.000    168.000     89.000    247.000    257.000     98.000     68.000     87.000    157.000     91.000    183.000    166.000    111.000    105.000    105.000    102.000    153.000    130.000    126.000    205.000    210.000    146.000    126.000    105.000    134.000     95.000     91.000    110.000     91.000    125.000    123.000    139.000    183.000    158.000    116.000    145.000    109.000    259.000    119.000    110.000    144.000    148.000    153.000  44702.000     0.0000     0.0000    -0.0310     0.0000    -0.8000     0.0000   -80.0000    -0.0016     0.0005     0.0403    -0.8000    13.0000     5.5000     5.5000    15.0000    -1.0055     1.5000    75.0000     1.0000    76.569
     36     9.7500     45.000  15295.000  50674.000     75.000    175.000     97.000    241.000    295.000     91.000     82.000     88.000    186.000    110.000    191.000    164.000    144.000     97.000    109.000    110.000    134.000    123.000     94.000    191.000    208.000    152.000    125.000    119.000    147.000    124.000     78.000    107.000    109.000    122.000    109.000    156.000    183.000    123.000    117.000    137.000    126.000    270.000     98.000    110.000    133.000    182.000    140.000  44702.000     0.0000     0.0000    -0.0310     0.0000    -0.8000     0.0000   -80.0000    -0.0016     0.0005     0.0403    -0.8000    13.0000     5.5000     5.5000    15.0000    -1.0055     1.5000    75.0000     1.0000    76.358
     37     9.8000     45.000  15464.000  51217.000     84.000    162.000     98.000    284.000    400.000    108.000     92.000     79.000    204.000    102.000    243.000    156.000    166.000     76.000     96.000    103.000    164.000    136.000    109.000    186.000    192.000    135.000    114.000    109.000    180.000    103.000    105.000    105.000     95.000    143.000    106.000    118.000    183.000    162.000    119.000    146.000    133.000    269.000     99.000    138.000    149.000    181.000    163.000  44922.000     0.0000     0.0000    -0.0310     0.0000    -0.8000     0.0000   -80.0000    -0.0016     0.0005     0.0403    -0.8000    13.0000     5.5000     5.5000    15.0000    -1.0055     1.5000    75.0000     1.0000    76.133
     38     9.8500     45.000  15441.000  51491.000     72.000    233.000     79.000    420.000    466.000    106.000     78.000     85.000    231.000    111.000    256.000    159.000    117.000     95.000    109.000    123.000    171.000    147.000    107.000    159.000    155.000    154.000    122.000    131.000    181.000    104.000     80.000    121.000    107.000    155.000    104.000    145.000    177.000    154.000    150.000    125.000    117.000    289.000    118.000    133.000    154.000    149.000    121.000  44921.000     0.0000     0.0000    -0.0310     0.0000    -0.8000     0.0000   -80.0000    -0.0016     0.0005     0.0403    -0.8000    13.0000     5.5000     5.5000    15.0000    -1.0055     1.5000    75.0000     1.0000    75.934
     39     9.9000     45.000  15458.000  51485.000     78.000    223.000     67.000    415.000    545.000    104.000    101.000     84.000    256.000    111.000    283.000    189.000    136.000     86.000     92.000    122.000    193.000    141.000    123.000    135.000    130.000    137.000    108.000    104.000    173.000     89.000     95.000    104.000    128.000    134.000    114.000    145.000    187.000    152.000    111.000    152.000    133.000    329.000    116.000    115.000    166.000    161.000    136.000  44782.000     0.0000     0.0000    -0.0310     0.0000    -0.8000     0.0000   -80.0000    -0.0016     0.0005     0.0403    -0.8000    13.0000     5.5000     5.5000    15.0000    -1.0055     1.5000    75.0000     1.0000    75.700
     40     9.9500     45.000  15457.000  51653.000     74.000    241.000     79.000    498.000    594.000    121.000     94.000    100.000    278.000     91.000    313.000    178.000    159.000     94.000     96.000    124.000    184.000    137.000    124.000    118.000    140.000    174.000    122.000     99.000    199.000     95.000    113.000    106.000    110.000    128.000    112.000    165.000    171.000    142.000    124.000    156.000    105.000    305.000    103.000    118.000    161.000    155.000    151.000  44702.000     0.0000     0.0000    -0.0310     0.0000    -0.8000     0.0000   -80.0000    -0.0016     0.0005     0.0403    -0.8000    13.0000     5.5000     5.5000    15.0000    -1.0055     1.5000    75.0000     1.0000    75.500
     41    10.0000     45.000  15492.000  51784.000     70.000    254.000     93.000    543.000    547.000    133.000     75.000     74.000    311.000    131.000    325.000    189.000    151.000     94.000     96.000    125.000    223.000    153.000    144.000    107.000    115.000    160.000    117.000     95.000    171.000     86.000     96.000    108.000    110.000    143.000     93.000    170.000    198.000    138.000    126.000    157.000    120.000    298.000    115.000    137.000    168.000    164.000    158.000  44703.000     0.0000     0.0000    -0.0310     0.0000    -0.8000     0.0000   -80.0000    -0.0016     0.0005     0.0403    -0.8000    13.0000     5.5000     5.5000    15.0000    -1.0055     1.5000    75.0000     1.0000    75.256
     42    10.0500     45.000  15623.000  52174.000     79.000    227.000     82.000    574.000    492.000    136.000     73.000     94.000    281.000    142.000    293.000    197.000    198.000     95.000    100.000    124.000    213.000    195.000    157.000    118.000    126.000    153.000    122.000     95.000    203.000    101.000     94.000    105.000    107.000    156.000    109.000    155.000    186.000    130.000    132.000    160.000    126.000    342.000    121.000    147.000    175.000    174.000    163.000  44922.000     0.0000     0.0000    -0.0310     0.0000    -0.8000     0.0000   -80.0000    -0.0016     0.0005     0.0403    -0.8000    13.0000     5.5000     5.5000    15.0000    -1.0055     1.5000    75.0000     1.0000    75.040
     43    10.1000     45.000  15343.000  51808.000     84.000    230.000     95.000    597.000    385.000    118.000     84.000     82.000    269.000    172.000    288.000    197.000    218.000     97.000    128.000    109.000    225.000    190.000    147.000    113.000    107.000    158.000    118.000     88.000    172.000     88.000     97.000     98.000    107.000    140.000    114.000    194.000    144.000    162.000    150.000    173.000    121.000    285.000    134.000    122.000    169.000    169.000    168.000  44702.000     0.0000     0.0000    -0.0310     0.0000    -0.8000     0.0000   -80.0000    -0.0016     0.0005     0.0403    -0.8000    13.0000     5.5000     5.5000    15.0000    -1.0055     1.5000    75.0000     1.0000    74.818
     44    10.1500     45.000  15321.000  51655.000     84.000    185.000     99.000    530.000    316.000    115.000     71.000     77.000    224.000    174.000    226.000    193.000    258.000     77.000    139.000    117.000    202.000    199.000    172.000    115.000    116.000    128.000    137.000    106.000    195.000     97.000    106.000     86.000    119.000    133.000    102.000    192.000    152.000    142.000    140.000    195.000    109.000    332.000    138.000    127.000    165.000    181.000    162.000  44722.000     0.0000     0.0000    -0.0310     0.0000    -0.8000     0.0000   -80.0000    -0.0016     0.0005     0.0403    -0.8000    13.0000     5.5000     5.5000    15.0000    -1.0055     1.5000    75.0000     1.0000    74.618
     45    10.2000     45.000  15242.000  51627.000     78.000    165.000     94.000    420.000    266.000    102.000     80.000     82.000    202.000    218.000    203.000    220.000    289.000     87.000    127.000    111.000    191.000    196.000    186.000     89.000    110.000    128.000    108.000    120.000    167.000     94.000    108.000    101.000    118.000    156.000     90.000    216.000    145.000    142.000    146.000    178.000    111.000    332.000    119.000    128.000    155.000    185.000    142.000  44922.000     0.0000     0.0000    -0.0310     0.0000    -0.8000     0.0000   -80.0000    -0.0016     0.0005     0.0403    -0.8000    13.0000     5.5000     5.5000    15.0000    -1.0055     1.5000    75.0000     1.0000    74.398
     46    10.2500     45.000  15499.000  51520.000     84.000    123.000     82.000    368.000    228.000     97.000     75.000     77.000    177.000    248.000    174.000    236.000    317.000    101.000    128.000     95.000    153.000    206.000    222.000    102.000    114.000    147.000    138.000     99.000    181.000     98.000     92.000     90.000    126.000    145.000    102.000    228.000    144.000    131.000    118.000    183.000    123.000    336.000    115.000    124.000    148.000    173.000    151.000  44921.000     0.0000     0.0000    -0.0310     0.0000    -0.8000     0.0000   -80.0000    -0.0016     0.0005     0.0403    -0.8000    13.0000     5.5000     5.5000    15.0000    -1.0055     1.5000    75.0000     1.0000    74.164
     47    10.3000     45.000  15413.000  51333.000     86.000    104.000     80.000    256.000    231.000     96.000     85.000     62.000    167.000    255.000    164.000    192.000    352.000    117.000    159.000     99.000    153.000    247.000    248.000     88.000    115.000    116.000    116.000    110.000    171.000    111.000    106.000     97.000    132.000    140.000     96.000    238.000    128.000    138.000    158.000    193.000    129.000    304.000    137.000    135.000    158.000    205.000    137.000  44722.000     0.0000     0.0000    -0.0310     0.0000    -0.8000     0.0000   -80.0000    -0.0016     0.0005     0.0403    -0.8000    13.0000     5.5000     5.5000    15.0000    -1.0055     1.5000    75.0000     1.0000    73.955
     48    10.3500     45.000  15295.000  51535.000     81.000    100.000     91.000    229.000    244.000     73.000     82.000     88.000    141.000    277.000    134.000    172.000    443.000    102.000    165.000    104.000    122.000    263.000    236.000    108.000    114.000    157.000    120.000    103.000    170.000     87.000    112.000    122.000    153.000    139.000    105.000    256.000    136.000    126.000    119.000    212.000    121.000    312.000    131.000    106.000    171.000    178.000    129.000  44901.000     0.0000     0.0000    -0.0310     0.0000    -0.8000     0.0000   -80.0000    -0.0016     0.0005     0.0403    -0.8000    13.0000     5.5000     5.5000    15.0000    -1.0055     1.5000    75.0000     1.0000    73.765
     49    10.4000     45.000  15401.000  51251.000     74.000    109.000     75.000    171.000    233.000     97.000     93.000     76.000    129.000    268.000    137.000    166.000    489.000     98.000    188.000    106.000    124.000    251.000    224.000    116.000    120.000    141.000    127.000    122.000    192.000    104.000     99.000     86.000    126.000    139.000     74.000    261.000    120.000    145.000    122.000    213.000    120.000    298.000    123.000    116.000    144.000    187.000    146.000  44702.000     0.0000     0.0000    -0.0310     0.0000    -0.8000     0.0000   -80.0000    -0.0016     0.0005     0.0403    -0.8000    13.0000     5.5000     5.5000    15.0000    -1.0055     1.5000    75.0000     1.0000    73.541
     50    10.4500     45.000  15303.000  51633.000     85.000     71.000     99.000    193.000    273.000     90.000     89.000     79.000    110.000    234.000    122.000    150.000    551.000     86.000    206.000    113.000    131.000    285.000    223.000    110.000    157.000    178.000    156.000     95.000    173.000     85.000    104.000     99.000    147.000    136.000     87.000    238.000    120.000    126.000    136.000    230.000    122.000    310.000    121.000    146.000    139.000    170.000    137.000  44921.000     0.0000     0.0000    -0.0310     0.0000    -0.8000     0.0000   -80.0000    -0.0016     0.0005     0.0403    -0.8000    13.0000     5.5000     5.5000    15.0000    -1.0055     1.5000    75.0000     1.0000    73.331
     51    10.5000     45.000  15687.000  51636.000     86.000     78.000     71.000    182.000    301.000     84.000     92.000     99.000    108.000    186.000    125.000    150.000    587.000     81.000    194.000    133.000    117.000    306.000    194.000    133.000    137.000    144.000    117.000     82.000    194.000    117.000     82.000     92.000    138.000    168.000    102.000    267.000    125.000    135.000    122.000    198.000    122.000    295.000    147.000    120.000    168.000    209.000    147.000  44901.000     0.0000     0.0000    -0.0310     0.0000    -0.8000     0.0000   -80.0000    -0.0016     0.0005     0.0403    -0.8000    13.0000     5.5000     5.5000    15.0000    -1.0055     1.5000    75.0000     1.0000    73.479
     52    10.5500     45.000  15533.000  51823.000     76.000     98.000    110.000    206.000    317.000     84.000     94.000     83.000    122.000    198.000     94.000    143.000    560.000     69.000    240.000    143.000    120.000    347.000    154.000    134.000    153.000    153.000    120.000    138.000    194.000     94.000     91.000    109.000    163.000    163.000    105.000    250.000    107.000    139.000    130.000    201.000    129.000    290.000    135.000    115.000    183.000    206.000    142.000  44921.000     0.0000     0.0000    -0.0310     0.0000    -0.8000     0.0000   -80.0000    -0.0016     0.0005     0.0403    -0.8000    13.0000     5.5000     5.5000    15.0000    -1.0055     1.5000    75.0000     1.0000    74.126
     53    10.6000     45.000  15429.000  51737.000     69.000     99.000     85.000    208.000    342.000     84.000     83.000     94.000    113.000    190.000     95.000    138.000    510.000     88.000    200.000    101.000    140.000    329.000    138.000    210.000    191.000    160.000    121.000    103.000    204.000     93.000    105.000    110.000    171.000    166.000    104.000    241.000    123.000    131.000    135.000    213.000    140.000    288.000    149.000    112.000    149.000    176.000    135.000  44901.000     0.0000     0.0000    -0.0310     0.0000    -0.8000     0.0000   -80.0000    -0.0016     0.0005     0.0403    -0.8000    13.0000     5.5000     5.5000    15.0000    -1.0055     1.5000    75.0000     1.0000    74.934
     54    10.6500     45.000  15345.000  51769.000     70.000     60.000     92.000    222.000    344.000    110.000    104.000    108.000    105.000    271.000     89.000    133.000    416.000     73.000    175.000    119.000    132.000    305.000    146.000    238.000    248.000    124.000    130.000    108.000    201.000    115.000    111.000    117.000    204.000    158.000     87.000    241.000    131.000    133.000    120.000    213.000    114.000    266.000    154.000     94.000    137.000    202.000    128.000  44921.000     0.0000     0.0000    -0.0310     0.0000    -0.8000     0.0000   -80.0000    -0.0016     0.0005     0.0403    -0.8000    13.0000     5.5000     5.5000    15.0000    -1.0055     1.5000    75.0000     1.0000    75.636
     55    10.7000     45.000  15246.000  51684.000     67.000     83.000     82.000    255.000    339.000     99.000    105.000    114.000    153.000    247.000     96.000    111.000    367.000     67.000    176.000    115.000    131.000    369.000    122.000    311.000    291.000    140.000    149.000     98.000    202.000    122.000     88.000     92.000    154.000    171.000     98.000    223.000    146.000    130.000    121.000    190.000    125.000    230.000    139.000    100.000    139.000    187.000    158.000  44782.000     0.0000     0.0000    -0.0310     0.0000    -0.8000     0.0000   -80.0000    -0.0016     0.0005     0.0403    -0.8000    13.0000     5.5000     5.5000    15.0000    -1.0055     1.5000    75.0000     1.0000    76.128
     56    10.7500     45.000  15270.000  51975.000     79.000     71.000     92.000    267.000    278.000     79.000     82.000    144.000    174.000    349.000     73.000    115.000    273.000     74.000    145.000    100.000    114.000    399.000    122.000    445.000    314.000    142.000    100.000    130.000    161.000    130.000    105.000    125.000    183.000    206.000     94.000    193.000    145.000    134.000    120.000    176.000    148.000    233.000    146.000    101.000    149.000    226.000    138.000  44901.000     0.0000     0.0000    -0.0310     0.0000    -0.8000     0.0000   -80.0000    -0.0016     0.0005     0.0403    -0.8000    13.0000     5.5000     5.5000    15.0000    -1.0055     1.5000    75.0000     1.0000    76.606
     57    10.8000     45.000  15343.000  52308.000     75.000     75.000     86.000    311.000    289.000    105.000     82.000    136.000    211.000    363.000    107.000    129.000    211.000     75.000    145.000    118.000    152.000    428.000    111.000    542.000    362.000    119.000    102.000    115.000    192.000    143.000    109.000    132.000    172.000    221.000    102.000    194.000    108.000    144.000    144.000    180.000    132.000    227.000    147.000     96.000    156.000    193.000    146.000  44921.000     0.0000     0.0000    -0.0310     0.0000    -0.8000     0.0000   -80.0000    -0.0016     0.0005     0.0403    -0.8000    13.0000     5.5000     5.5000    15.0000    -1.0055     1.5000    75.0000     1.0000    77.174
     58    10.8500     45.000  15254.000  52397.000     74.000     92.000    110.000    335.000    208.000     82.000     85.000    189.000    270.000    505.000    131.000    132.000    190.000     80.000    145.000    100.000    131.000    420.000    128.000    758.000    343.000    117.000     92.000    110.000    164.000    166.000    114.000    129.000    169.000    245.000    110.000    164.000    101.000    141.000    138.000    172.000    131.000    207.000    146.000     97.000    148.000    200.000    126.000  44702.000     0.0000     0.0000    -0.0310     0.0000    -0.8000     0.0000   -80.0000    -0.0016     0.0005     0.0403    -0.8000    13.0000     5.5000     5.5000    15.0000    -1.0055     1.5000    75.0000     1.0000    77.724
     59    10.9000     45.000  15379.000  52709.000     92.000     88.000     85.000    333.000    179.000     77.000     89.000    203.000    332.000    547.000    113.000    118.000    163.000     80.000    131.000    103.000    146.000    406.000    118.000    823.000    327.000    115.000     89.000    128.000    179.000    144.000     87.000    122.000    180.000    262.000    101.000    153.000    129.000    141.000    138.000    158.000    137.000    205.000    158.000     93.000    142.000    230.000    144.000  44921.000     0.0000     0.0000    -0.0310     0.0000    -0.8000     0.0000   -80.0000    -0.0016     0.0005     0.0403    -0.8000    13.0000     5.5000     5.5000    15.0000    -1.0055     1.5000    75.0000     1.0000    78.249
     60    10.9500     45.000  15251.000  53077.000     95.000     74.000     93.000    410.000    159.000     75.000     76.000    255.000    354.000    629.000    132.000    148.000    186.000     69.000    125.000     98.000    142.000    347.000    121.000    935.000    296.000    124.000    121.000    124.000    163.000    168.000    104.000    136.000    172.000    260.000    110.000    148.000    160.000    141.000    125.000    157.000    122.000    196.000    134.000    107.000    174.000    236.000    155.000  44921.000     0.0000     0.0000    -0.0310     0.0000    -0.8000     0.0000   -80.0000    -0.0016     0.0005     0.0403    -0.8000    13.0000     5.5000     5.5000    15.0000    -1.0055     1.5000    75.0000     1.0000    78.739
     61    11.0000     45.000  15483.000  52999.000     88.000     75.000     85.000    447.000    125.000     77.000     77.000    287.000    378.000    614.000    123.000    158.000    180.000     99.000    132.000    103.000    142.000    316.000    140.000    974.000    252.000    128.000    128.000    147.000    169.000    189.000    106.000    108.000    165.000    282.000    107.000    146.000    137.000    124.000    121.000    139.000    126.000    180.000    127.000     95.000    147.000    216.000    139.000  44901.000     0.0000     0.0000    -0.0310     0.0000    -0.8000     0.0000   -80.0000    -0.0016     0.0005     0.0403    -0.8000    13.0000     5.5000     5.5000    15.0000    -1.0055     1.5000    75.0000     1.0000    79.196
     62    11.0500     45.000  15352.000  52593.000     91.000     98.000     98.000    408.000    124.000     79.000    109.000    290.000    395.000    505.000    155.000    189.000    192.000     73.000    118.000    112.000    144.000    230.000    120.000    943.000    204.000    112.000    112.000    123.000    163.000    180.000     91.000    125.000    139.000    272.000    111.000    142.000    144.000    142.000    126.000    156.000    124.000    183.000    135.000    106.000    152.000    233.000    143.000  44702.000     0.0000     0.0000    -0.0310     0.0000    -0.8000     0.0000   -80.0000    -0.0016     0.0005     0.0403    -0.8000    13.0000     5.5000     5.5000    15.0000    -1.0055     1.5000    75.0000     1.0000    79.597
     63    11.1000     45.000  15349.000  52527.000    108.000     77.000     89.000    384.000    148.000     80.000     85.000    265.000    346.000    488.000    211.000    197.000    211.000    101.000    106.000     94.000    130.000    211.000    154.000    939.000    172.000    131.000    116.000    136.000    159.000    184.000     99.000    117.000    138.000    239.000    121.000    105.000    122.000    144.000    129.000    163.000     95.000    171.000    142.000     95.000    162.000    225.000    137.000  44801.000     0.0000     0.0000    -0.0310     0.0000    -0.8000     0.0000   -80.0000    -0.0016     0.0005     0.0403    -0.8000    13.0000     5.5000     5.5000    15.0000    -1.0055     1.5000    75.0000     1.0000    79.967
     64    11.1500     45.000  15376.000  52045.000    118.000     74.000     67.000    361.000    129.000     75.000     80.000    251.000    278.000    357.000    211.000    231.000    226.000     85.000    113.000    107.000    132.000    225.000    140.000    785.000    156.000    142.000    113.000    144.000    157.000    194.000    103.000    135.000    107.000    278.000    113.000    127.000    116.000    137.000    138.000    134.000    122.000    179.000    123.000     78.000    154.000    220.000    128.000  44702.000     0.0000     0.0000    -0.0310     0.0000    -0.8000     0.0000   -80.0000    -0.0016     0.0005     0.0403    -0.8000    13.0000     5.5000     5.5000    15.0000    -1.0055     1.5000    75.0000     1.0000    80.273
     65    11.2000     45.000  15372.000  51667.000    111.000     90.000     87.000    327.000    171.000     74.000     81.000    192.000    249.000    322.000    238.000    194.000    241.000     84.000     93.000     96.000    136.000    174.000    133.000    622.000    135.000     85.000    122.000    132.000    164.000    192.000    109.000    131.000    132.000    263.000    100.000    101.000    125.000    131.000    131.000    159.000    116.000    187.000    109.000    106.000    165.000    208.000    147.000  44702.000     0.0000     0.0000    -0.0310     0.0000    -0.8000     0.0000   -80.0000    -0.0016     0.0005     0.0403    -0.8000    13.0000     5.5000     5.5000    15.0000    -1.0055     1.5000    75.0000     1.0000    80.521
     66    11.2500     45.000  15574.000  51604.000    110.000     87.000     87.000    234.000    181.000     78.000     86.000    160.000    206.000    257.000    297.000    233.000    238.000     96.000    126.000    107.000    138.000    164.000    121.000    499.000    141.000    104.000    149.000    125.000    157.000    184.000    130.000    148.000    122.000    228.000    105.000    110.000    118.000    132.000    143.000    130.000    108.000    157.000    139.000     96.000    144.000    219.000    149.000  44861.000     0.0000     0.0000    -0.0310     0.0000    -0.8000     0.0000   -80.0000    -0.0016     0.0005     0.0403    -0.8000    13.0000     5.5000     5.5000    15.0000    -1.0055     1.5000    75.0000     1.0000    80.743
     67    11.3000     45.000  15466.000  51104.000     88.000     77.000     90.000    181.000    161.000     83.000     91.000    155.000    230.000    201.000    253.000    207.000    265.000     92.000    101.000    121.000    149.000    155.000    124.000    363.000    162.000    129.000    126.000    119.000    110.000    177.000    101.000    128.000    132.000    202.000    110.000    134.000    125.000    123.000    141.000    143.000    126.000    163.000    130.000     90.000    162.000    222.000    140.000  44722.000     0.0000     0.0000    -0.0310     0.0000    -0.8000     0.0000   -80.0000    -0.0016     0.0005     0.0403    -0.8000    13.0000     5.5000     5.5000    15.0000    -1.0055     1.5000    75.0000     1.0000    80.925
     68    11.3500     45.000  15237.000  51478.000    117.000    101.000     89.000    167.000    206.000     89.000     92.000    136.000    217.000    194.000    203.000    206.000    224.000     73.000    123.000    102.000    184.000    185.000    119.000    356.000    164.000    120.000    148.000    161.000    146.000    195.000    115.000    112.000    133.000    238.000    114.000    120.000    146.000    135.000    164.000    137.000    130.000    159.000    121.000    129.000    156.000    197.000    134.000  44921.000     0.0000     0.0000    -0.0310     0.0000    -0.8000     0.0000   -80.0000    -0.0016     0.0005     0.0403    -0.8000    13.0000     5.5000     5.5000    15.0000    -1.0055     1.5000    75.0000     1.0000    81.054
     69    11.4000     45.000  15419.000  50927.000     92.000     66.000    108.000    128.000    153.000     84.000     96.000    141.000    251.000    173.000    194.000    199.000    234.000     81.000    114.000    109.000    209.000    169.000    126.000    225.000    141.000    130.000    147.000    172.000    118.000    188.000    108.000    127.000    100.000    195.000    132.000    111.000    134.000    125.000    163.000    128.000    131.000    158.000    143.000    111.000    167.000    190.000    134.000  44722.000     0.0000     0.0000    -0.0310     0.0000    -0.8000     0.0000   -80.0000    -0.0016     0.0005     0.0403    -0.8000    13.0000     5.5000     5.5000    15.0000    -1.0055     1.5000    75.0000     1.0000    81.188
     70    11.4500     45.000  15361.000  50994.000    106.000     75.000     85.000    111.000    162.000     84.000     96.000    144.000    251.000    172.000    140.000    202.000    204.000    101.000    115.000    131.000    205.000    169.000    141.000    205.000    151.000    109.000    128.000    178.000    134.000    166.000    128.000    110.000    109.000    190.000    122.000    119.000    132.000    142.000    144.000    134.000    127.000    163.000    121.000    115.000    140.000    190.000    142.000  44901.000     0.0000     0.0000    -0.0310     0.0000    -0.8000     0.0000   -80.0000    -0.0016     0.0005     0.0403    -0.8000    13.0000     5.5000     5.5000    15.0000    -1.0055     1.5000    75.0000     1.0000    81.290
     71    11.5000     45.000  15330.000  50727.000     96.000     80.000     82.000    127.000    127.000     87.000     89.000    160.000    230.000    192.000    123.000    164.000    183.000     88.000    120.000    106.000    198.000    168.000    122.000    171.000    130.000    110.000    127.000    160.000    127.000    155.000    119.000    106.000    103.000    180.000    123.000    108.000    126.000    146.000    149.000    161.000    113.000    138.000    125.000    115.000    157.000    194.000    141.000  44901.000     0.0000     0.0000    -0.0310     0.0000    -0.8000     0.0000   -80.0000    -0.0016     0.0005     0.0403    -0.8000    13.0000     5.5000     5.5000    15.0000    -1.0055     1.5000    75.0000     1.0000    81.351
     72    11.5500     45.000  15337.000  50728.000     87.000     76.000     98.000    138.000    108.000     78.000    103.000    163.000    241.000    163.000    110.000    144.000    171.000    103.000    127.000    117.000    217.000    158.000    135.000    163.000    154.000    130.000    121.000    208.000    122.000    136.000    131.000     99.000    114.000    157.000    120.000    114.000    120.000    113.000    141.000    132.000    129.000    146.000    120.000     93.000    161.000    225.000    160.000  44882.000     0.0000     0.0000    -0.0310     0.0000    -0.8000     0.0000   -80.0000    -0.0016     0.0005     0.0403    -0.8000    13.0000     5.5000     5.5000    15.0000    -1.0055     1.5000    75.0000     1.0000    81.380
     73    11.6000     45.000  15443.000  50332.000     81.000     78.000     87.000    111.000    125.000     95.000    100.000    160.000    218.000    159.000    126.000    124.000    151.000     96.000    140.000    131.000    204.000    150.000    109.000    126.000    153.000    118.000    124.000    175.000    114.000    143.000    132.000    122.000    120.000    146.000    112.000    114.000    105.000    114.000    142.000    126.000    137.000    119.000    106.000    126.000    186.000    182.000    143.000  44702.000     0.0000     0.0000    -0.0310     0.0000    -0.8000     0.0000   -80.0000    -0.0016     0.0005     0.0403    -0.8000    13.0000     5.5000     5.5000    15.0000    -1.0055     1.5000    75.0000     1.0000    81.389
     74    11.6500     45.000  15389.000  50360.000     99.000     83.000     94.000    170.000     98.000     84.000    104.000    131.000    214.000    150.000    140.000    108.000    171.000    102.000    143.000    132.000    179.000    133.000    129.000    145.000    146.000    139.000    131.000    203.000    124.000    153.000    100.000    107.000    111.000    130.000    113.000    116.000    122.000    119.000    141.000    133.000    118.000    124.000    113.000    103.000    160.000    191.000    152.000  44702.000     0.0000     0.0000    -0.0310     0.0000    -0.8000     0.0000   -80.0000    -0.0016     0.0005     0.0403    -0.8000    13.0000     5.5000     5.5000    15.0000    -1.0055     1.5000    75.0000     1.0000    81.374
     75    11.7000     45.000  15431.000  50601.000     61.000     90.000    103.000    152.000    104.000     86.000    129.000    124.000    176.000    155.000    125.000    110.000    166.000    110.000    117.000    121.000    190.000    140.000    120.000    162.000    155.000    159.000    142.000    197.000    110.000    128.000    130.000     99.000    126.000    137.000    127.000    140.000    123.000    118.000    148.000    138.000    137.000    134.000    112.000    117.000    205.000    192.000    164.000  44822.000     0.0000     0.0000    -0.0310     0.0000    -0.8000     0.0000   -80.0000    -0.0016     0.0005     0.0403    -0.8000    13.0000     5.5000     5.5000    15.0000    -1.0055     1.5000    75.0000     1.0000    81.324
     76    11.7500     45.000  15336.000  50542.000     86.000     88.000     94.000    158.000     96.000     88.000    139.000    117.000    173.000    150.000    159.000    125.000    182.000    147.000    131.000    131.000    179.000    115.000    113.000    160.000    151.000    135.000    104.000    188.000    133.000    135.000    120.000    115.000    123.000    121.000    141.000    106.000    116.000    100.000    125.000    134.000    136.000    143.000     99.000    109.000    157.000    169.000    150.000  44901.000     0.0000     0.0000    -0.0310     0.0000    -0.8000     0.0000   -80.0000    -0.0016     0.0005     0.0403    -0.8000    13.0000     5.5000     5.5000    15.0000    -1.0055     1.5000    75.0000     1.0000    81.290
     77    11.8000     45.000  15260.000  50532.000     90.000     94.000     87.000    140.000    104.000     96.000    172.000     87.000    139.000    143.000    179.000    106.000    157.000    120.000    150.000    120.000    160.000    137.000     94.000    175.000    126.000    138.000    111.000    190.000    110.000    160.000    114.000    125.000     99.000    135.000    134.000    113.000    127.000    127.000    130.000    137.000    144.000    139.000    108.000    104.000    163.000    187.000    140.000  44921.000     0.0000     0.0000    -0.0310     0.0000    -0.8000     0.0000   -80.0000    -0.0016     0.0005     0.0403    -0.8000    13.0000     5.5000     5.5000    15.0000    -1.0055     1.5000    75.0000     1.0000    81.191
     78    11.8500     45.000  15216.000  50605.000     81.000     81.000     92.000    151.000    101.000     94.000    182.000     84.000    140.000    154.000    225.000    111.000    161.000    134.000    148.000    116.000    165.000    154.000    127.000    204.000    120.000    155.000    115.000    157.000    132.000    122.000    121.000    103.000    136.000    120.000    109.000    131.000     97.000    111.000    130.000    109.000    151.000    130.000    110.000    119.000    175.000    175.000    151.000  44921.000     0.0000     0.0000    -0.0310     0.0000    -0.8000     0.0000   -80.0000    -0.0016     0.0005     0.0403    -0.8000    13.0000     5.5000     5.5000    15.0000    -1.0055     1.5000    75.0000     1.0000    81.132
     79    11.9000     45.000  15186.000  50363.000     92.000     88.000    102.000    152.000     88.000     94.000    194.000     71.000    127.000    173.000    264.000    117.000    127.000    144.000    151.000    120.000    115.000    141.000    118.000    251.000    125.000    185.000    109.000    160.000    124.000     85.000    114.000     92.000     99.000    128.000    113.000    123.000    117.000     99.000    139.000    126.000    156.000    143.000    129.000    105.000    156.000    173.000    132.000  44702.000     0.0000     0.0000    -0.0310     0.0000    -0.8000     0.0000   -80.0000    -0.0016     0.0005     0.0403    -0.8000    13.0000     5.5000     5.5000    15.0000    -1.0055     1.5000    75.0000     1.0000    81.026
     80    11.9500     45.000  15499.000  50632.000     82.000     73.000     99.000    134.000     93.000    101.000    193.000     73.000    116.000    155.000    274.000    116.000    119.000    164.000    133.000    104.000    148.000    177.000    126.000    245.000    133.000    161.000    105.000    153.000    132.000    101.000    119.000    104.000    124.000    127.000    123.000    118.000    127.000    125.000    131.000    121.000    173.000    122.000    131.000    127.000    135.000    150.000    144.000  44921.000     0.0000     0.0000    -0.0310     0.0000    -0.8000     0.0000   -80.0000    -0.0016     0.0005     0.0403    -0.8000    13.0000     5.5000     5.5000    15.0000    -1.0055     1.5000    75.0000     1.0000    80.923
     81    12.0000     45.000  15564.000  50555.000     99.000     92.000    114.000    122.000    116.000    116.000    242.000     86.000    124.000    130.000    270.000    113.000    107.000    158.000    137.000    117.000    141.000    171.000    151.000    242.000    119.000    186.000    123.000    132.000    107.000    103.000    122.000    109.000    132.000    127.000    115.000    118.000     97.000    128.000    149.000    128.000    158.000    124.000     99.000    100.000    167.000    174.000    168.000  44722.000     0.0000     0.0000    -0.0310     0.0000    -0.8000     0.0000   -80.0000    -0.0016     0.0005     0.0403    -0.8000    13.0000     5.5000     5.5000    15.0000    -1.0055     1.5000    75.0000     1.0000    80.793
     82    12.0500     45.000  15353.000  50809.000     90.000     90.000    122.000    122.000    109.000     99.000    211.000     75.000    108.000    163.000    277.000    107.000    105.000    143.000    133.000    112.000    128.000    179.000    153.000    316.000    131.000    209.000    118.000    116.000    125.000    108.000    127.000    104.000    121.000    131.000    121.000    129.000    131.000    110.000    112.000    128.000    161.000    129.000    107.000    112.000    187.000    169.000    160.000  44921.000     0.0000     0.0000    -0.0310     0.0000    -0.8000     0.0000   -80.0000    -0.0016     0.0005     0.0403    -0.8000    13.0000     5.5000     5.5000    15.0000    -1.0055     1.5000    75.0000     1.0000    80.667
     83    12.1000     45.000  15397.000  50679.000    101.000     84.000    120.000    137.000     96.000     74.000    219.000     89.000    105.000    124.000    281.000    105.000    114.000    120.000    143.000     88.000    135.000    171.000    167.000    289.000    147.000    165.000    105.000    123.000    125.000     95.000    125.000    113.000    114.000    121.000    129.000    122.000    115.000    127.000    148.000    123.000    168.000    121.000    127.000    127.000    142.000    162.000    152.000  44921.000     0.0000     0.0000    -0.0310     0.0000    -0.8000     0.0000   -80.0000    -0.0016     0.0005     0.0403    -0.8000    13.0000     5.5000     5.5000    15.0000    -1.0055     1.5000    75.0000     1.0000    80.498
     84    12.1500     45.000  15530.000  50837.000    100.000     72.000    177.000    140.000     79.000     96.000    192.000     88.000    110.000    126.000    212.000    124.000    103.000    109.000    122.000    123.000    124.000    412.000    212.000    265.000    149.000    162.000    112.000    108.000    128.000     97.000    114.000    106.000    113.000    130.000    125.000    141.000    119.000    124.000    122.000    113.000    189.000    134.000    119.000    111.000    156.000    139.000    139.000  44901.000     0.0000     0.0000    -0.0310     0.0000    -0.8000     0.0000   -80.0000    -0.0016     0.0005     0.0403    -0.8000    13.0000     5.5000     5.5000    15.0000    -1.0055     1.5000    75.0000     1.0000    80.317
     85    12.2000     45.000  15463.000  51844.000    125.000     96.000    145.000    163.000     89.000     84.000    167.000    101.000     99.000    145.000    230.000    131.000    109.000     88.000    122.000    115.000    151.000   1414.000    224.000    249.000    143.000    137.000    120.000    127.000    118.000     67.000    140.000     97.000    126.000    124.000    127.000    133.000    132.000    112.000    115.000    108.000    187.000    123.000    134.000    102.000    149.000    157.000    158.000  44861.000     0.0000     0.0000    -0.0310     0.0000    -0.8000     0.0000   -80.0000    -0.0016     0.0005     0.0403    -0.8000    13.0000     5.5000     5.5000    15.0000    -1.0055     1.5000    75.0000     1.0000    80.144
     86    12.2500     45.000  15456.000  50589.000    146.000     77.000    149.000    151.000     92.000     82.000    137.000     69.000    115.000    120.000    159.000    151.000    113.000     91.000    120.000    102.000    138.000    434.000    264.000    196.000    132.000    153.000    119.000    120.000     94.000     72.000    135.000     95.000    112.000    113.000    109.000    146.000    132.000    131.000    122.000    102.000    201.000    134.000    127.000    111.000    173.000    186.000    162.000  44702.000     0.0000     0.0000    -0.0310     0.0000    -0.8000     0.0000   -80.0000    -0.0016     0.0005     0.0403    -0.8000    13.0000     5.5000     5.5000    15.0000    -1.0055     1.5000    75.0000     1.0000    79.963
     87    12.3000     45.000  15346.000  50322.000    138.000     77.000    135.000    164.000    109.000     70.000    109.000     91.000    103.000    147.000    174.000    142.000     92.000     97.000    113.000    103.000    145.000    129.000    245.000    183.000    147.000    139.000    129.000    128.000    102.000     86.000    128.000    104.000    101.000    114.000    115.000    168.000    112.000    137.000    145.000    122.000    218.000    113.000    150.000    148.000    161.000    143.000    144.000  44702.000     0.0000     0.0000    -0.0310     0.0000    -0.8000     0.0000   -80.0000    -0.0016     0.0005     0.0403    -0.8000    13.0000     5.5000     5.5000    15.0000    -1.0055     1.5000    75.0000     1.0000    79.797
     88    12.3500     45.000  15416.000  50555.000    163.000     81.000    185.000    175.000     87.000     86.000     94.000    109.000     93.000    158.000    164.000    141.000    115.000     78.000    103.000    120.000    129.000    120.000    232.000    197.000    145.000    131.000    117.000    133.000     92.000     67.000    134.000     80.000    129.000    113.000    108.000    157.000    134.000    123.000    140.000    125.000    220.000    124.000    133.000    124.000    155.000    160.000    160.000  44921.000     0.0000     0.0000    -0.0310     0.0000    -0.8000     0.0000   -80.0000    -0.0016     0.0005     0.0403    -0.8000    13.0000     5.5000     5.5000    15.0000    -1.0055     1.5000    75.0000     1.0000    79.567
     89    12.4000     45.000  15386.000  50646.000    182.000     62.000    189.000    212.000    109.000    101.000     99.000    111.000    101.000    166.000    149.000    149.000     97.000     78.000    123.000    152.000    138.000    112.000    214.000    199.000    148.000    124.000    113.000    186.000    106.000     92.000    146.000     92.000    108.000    133.000    115.000    186.000    125.000    127.000    145.000    122.000    228.000    130.000    125.000    126.000    165.000    164.000    175.000  44722.000     0.0000     0.0000    -0.0310     0.0000    -0.8000     0.0000   -80.0000    -0.0016     0.0005     0.0403    -0.8000    13.0000     5.5000     5.5000    15.0000    -1.0055     1.5000    75.0000     1.0000    79.346
     90    12.4500     45.000  15380.000  50825.000    202.000     94.000    206.000    270.000     95.000     83.000     98.000    119.000    106.000    175.000    164.000    117.000     90.000    101.000    101.000    147.000    119.000    108.000    219.000    159.000    138.000    126.000    111.000    166.000    105.000     68.000    159.000    117.000    111.000    127.000    122.000    178.000    134.000    139.000    158.000    120.000    280.000    120.000    139.000    148.000    154.000    143.000    167.000  44822.000     0.0000     0.0000    -0.0310     0.0000    -0.8000     0.0000   -80.0000    -0.0016     0.0005     0.0403    -0.8000    13.0000     5.5000     5.5000    15.0000    -1.0055     1.5000    75.0000     1.0000    79.162
     91    12.5000     45.000  15395.000  50995.000    219.000     95.000    258.000    332.000    106.000     96.000     72.000    176.000    110.000    210.000    181.000    135.000     91.000     82.000    112.000    144.000    141.000    121.000    154.000    164.000    135.000    140.000    103.000    186.000    101.000     60.000    108.000     91.000    107.000    108.000    130.000    176.000    126.000    130.000    127.000    105.000    276.000    122.000    146.000    105.000    141.000    165.000    186.000  44922.000     0.0000     0.0000    -0.0310     0.0000    -0.8000     0.0000   -80.0000    -0.0016     0.0005     0.0403    -0.8000    13.0000     5.5000     5.5000    15.0000    -1.0055     1.5000    75.0000     1.0000    78.936
     92    12.5500     45.000  15395.000  51382.000    233.000     90.000    308.000    388.000    120.000     67.000     80.000    163.000    107.000    264.000    168.000    133.000    109.000     64.000    116.000    171.000    172.000    124.000    149.000    184.000    156.000    130.000    123.000    213.000    106.000     76.000    119.000     98.000    119.000    121.000    131.000    203.000    139.000    155.000    147.000    107.000    285.000    133.000    137.000    106.000    184.000    127.000    155.000  44902.000     0.0000     0.0000    -0.0310     0.0000    -0.8000     0.0000   -80.0000    -0.0016     0.0005     0.0403    -0.8000    13.0000     5.5000     5.5000    15.0000    -1.0055     1.5000    75.0000     1.0000    78.741
     93    12.6000     45.000  15128.000  51430.000    232.000     79.000    377.000    441.000    122.000     93.000     72.000    194.000     86.000    301.000    195.000    154.000     95.000     93.000    133.000    159.000    159.000     95.000    146.000    142.000    144.000    128.000    126.000    190.000    132.000     92.000    117.000    100.000    136.000    112.000    130.000    172.000    144.000    156.000    173.000    116.000    294.000    126.000    151.000    125.000    149.000    151.000    175.000  44723.000     0.0000     0.0000    -0.0310     0.0000    -0.8000     0.0000   -80.0000    -0.0016     0.0005     0.0403    -0.8000    13.0000     5.5000     5.5000    15.0000    -1.0055     1.5000    75.0000     1.0000    78.547
     94    12.6500     45.000  15282.000  51627.000    253.000     89.000    411.000    560.000    157.000     80.000     96.000    231.000    123.000    315.000    173.000    150.000    103.000     86.000    129.000    194.000    178.000    114.000    143.000    127.000    142.000    134.000     99.000    201.000    119.000     62.000    115.000    100.000    124.000    115.000    144.000    178.000    110.000    143.000    166.000    126.000    303.000    120.000    138.000    131.000    154.000    133.000    155.000  44703.000     0.0000     0.0000    -0.0310     0.0000    -0.8000     0.0000   -80.0000    -0.0016     0.0005     0.0403    -0.8000    13.0000     5.5000     5.5000    15.0000    -1.0055     1.5000    75.0000     1.0000    78.315
     95    12.7000     45.000  15285.000  51936.000    250.000     91.000    471.000    570.000    149.000     77.000     85.000    219.000    149.000    327.000    202.000    173.000    127.000     87.000     98.000    254.000    173.000    129.000    110.000    124.000    139.000    118.000     99.000    186.000    125.000     78.000    119.000     95.000    131.000    122.000    164.000    211.000    140.000    149.000    186.000    104.000    307.000    119.000    179.000    133.000    161.000    140.000    163.000  44703.000     0.0000     0.0000    -0.0310     0.0000    -0.8000     0.0000   -80.0000    -0.0016     0.0005     0.0403    -0.8000    13.0000     5.5000     5.5000    15.0000    -1.0055     1.5000    75.0000     1.0000    78.133
     96    12.7500     45.000  15320.000  51768.000    185.000     79.000    552.000    486.000    122.000     84.000     94.000    261.000    166.000    321.000    229.000    188.000     93.000     75.000    116.000    222.000    162.000    131.000    134.000    100.000    145.000    123.000     90.000    200.000    102.000     61.000     81.000     97.000    143.000    126.000    149.000    176.000    119.000    118.000    188.000    120.000    311.000    131.000    149.000    110.000    164.000    157.000    186.000  44722.000     0.0000     0.0000    -0.0310     0.0000    -0.8000     0.0000   -80.0000    -0.0016     0.0005     0.0403    -0.8000    13.0000     5.5000     5.5000    15.0000    -1.0055     1.5000    75.0000     1.0000    77.930
     97    12.8000     45.000  15200.000  52193.000    159.000     79.000    611.000    426.000    158.000     86.000     70.000    225.000    155.000    315.000    215.000    236.000    100.000     84.000     99.000    209.000    215.000    160.000    120.000    103.000    140.000    142.000    106.000    180.000    104.000     83.000    117.000    103.000    132.000    132.000    192.000    184.000    137.000    159.000    181.000    111.000    298.000    154.000    153.000    128.000    177.000    150.000    203.000  44902.000     0.0000     0.0000    -0.0310     0.0000    -0.8000     0.0000   -80.0000    -0.0016     0.0005     0.0403    -0.8000    13.0000     5.5000     5.5000    15.0000    -1.0055     1.5000    75.0000     1.0000    77.709
     98    12.8500     45.000  15252.000  51943.000    142.000     72.000    590.000    390.000    143.000     89.000    102.000    198.000    184.000    276.000    198.000    225.000     95.000     83.000    112.000    193.000    210.000    179.000    103.000     87.000    145.000    134.000    125.000    206.000    101.000     67.000     86.000    107.000    140.000    118.000    201.000    166.000    128.000    135.000    195.000    102.000    296.000    119.000    148.000    135.000    172.000    130.000    195.000  44921.000     0.0000     0.0000    -0.0310     0.0000    -0.8000     0.0000   -80.0000    -0.0016     0.0005     0.0403    -0.8000    13.0000     5.5000     5.5000    15.0000    -1.0055     1.5000    75.0000     1.0000    77.489
     99    12.9000     45.000  15085.000  51768.000    114.000     80.000    500.000    296.000    125.000     79.000     75.000    184.000    223.000    253.000    200.000    291.000    121.000     96.000    101.000    178.000    203.000    167.000    108.000     79.000    130.000    128.000     92.000    195.000    101.000     70.000    101.000    114.000    121.000    108.000    229.000    158.000    136.000    137.000    197.000    115.000    313.000    149.000    153.000    136.000    153.000    152.000    186.000  44921.000     0.0000     0.0000    -0.0310     0.0000    -0.8000     0.0000   -80.0000    -0.0016     0.0005     0.0403    -0.8000    13.0000     5.5000     5.5000    15.0000    -1.0055     1.5000    75.0000     1.0000    77.275
    100    12.9500     45.000  15281.000  51683.000     81.000     84.000    419.000    252.000    111.000     70.000     98.000    164.000    267.000    218.000    175.000    318.000    101.000     95.000    102.000    174.000    249.000    177.000    111.000     89.000    141.000    131.000    112.000    186.000    115.000     80.000    131.000    109.000    142.000    108.000    224.000    132.000    127.000    152.000    194.000    129.000    293.000    139.000    140.000    132.000    167.000    132.000    191.000  44921.000     0.0000     0.0000    -0.0310     0.0000    -0.8000     0.0000   -80.0000    -0.0016     0.0005     0.0403    -0.8000    13.0000     5.5000     5.5000    15.0000    -1.0055     1.5000    75.0000     1.0000    77.073
    101    13.0000     45.000  15365.000  51332.000     75.000     75.000    376.000    205.000     98.000     84.000     84.000    137.000    237.000    195.000    148.000    403.000     95.000    115.000    115.000    137.000    234.000    243.000     89.000     78.000    114.000    145.000     93.000    166.000    105.000     85.000     98.000    130.000    127.000    115.000    254.000    133.000    119.000    158.000    223.000    108.000    313.000    130.000    132.000    141.000    155.000    133.000    210.000  44722.000     0.0000     0.0000    -0.0310     0.0000    -0.8000     0.0000   -80.0000    -0.0016     0.0005     0.0403    -0.8000    13.0000     5.5000     5.5000    15.0000    -1.0055     1.5000    75.0000     1.0000    76.836
    102    13.0500     45.000  15329.000  51273.000     77.000     83.000    258.000    193.000     86.000     88.000     95.000    136.000    282.000    162.000    162.000    462.000     80.000    117.000    113.000    148.000    282.000    227.000    100.000     85.000    128.000    121.000    116.000    168.000    122.000     76.000    118.000    134.000    142.000    112.000    235.000    117.000    111.000    132.000    215.000    112.000    289.000    123.000    137.000    113.000    176.000    142.000    196.000  44702.000     0.0000     0.0000    -0.0310     0.0000    -0.8000     0.0000   -80.0000    -0.0016     0.0005     0.0403    -0.8000    13.0000     5.5000     5.5000    15.0000    -1.0055     1.5000    75.0000     1.0000    76.606
    103    13.1000     45.000  15490.000  51499.000     77.000     81.000    234.000    232.000    103.000    101.000     75.000    108.000    238.000    128.000    149.000    534.000    113.000    149.000    115.000    113.000    292.000    222.000    143.000     95.000    127.000    132.000    103.000    205.000    109.000     79.000    110.000    123.000    134.000    113.000    239.000    142.000    132.000    170.000    229.000     99.000    293.000    145.000    144.000    127.000    166.000    155.000    199.000  44722.000     0.0000     0.0000    -0.0310     0.0000    -0.8000     0.0000   -80.0000    -0.0016     0.0005     0.0403    -0.8000    13.0000     5.5000     5.5000    15.0000    -1.0055     1.5000    75.0000     1.0000    76.377
    104    13.1500     45.000  15456.000  51671.000     84.000     68.000    197.000    223.000     99.000     93.000     85.000     97.000    226.000    117.000    150.000    587.000    110.000    130.000    106.000    144.000    306.000    217.000    153.000    105.000    134.000    155.000    116.000    194.000     96.000     76.000    113.000    132.000    162.000    109.000    230.000    101.000    128.000    147.000    220.000    113.000    305.000    151.000    114.000    112.000    187.000    139.000    219.000  44921.000     0.0000     0.0000    -0.0310     0.0000    -0.8000     0.0000   -80.0000    -0.0016     0.0005     0.0403    -0.8000    13.0000     5.5000     5.5000    15.0000    -1.0055     1.5000    75.0000     1.0000    76.143
    105    13.2000     45.000  15271.000  51428.000     85.000     91.000    164.000    279.000     89.000     93.000     82.000    113.000    201.000    123.000    132.000    629.000    103.000    141.000     97.000    121.000    294.000    210.000    146.000    147.000    149.000    112.000    114.000    186.000    118.000     74.000    102.000    140.000    129.000     98.000    253.000    123.000    125.000    155.000    186.000     96.000    284.000    162.000    133.000    107.000    181.000    136.000    223.000  44702.000     0.0000     0.0000    -0.0310     0.0000    -0.8000     0.0000   -80.0000    -0.0016     0.0005     0.0403    -0.8000    13.0000     5.5000     5.5000    15.0000    -1.0055     1.5000    75.0000     1.0000    75.923
    106    13.2500     45.000  15441.000  51514.000     86.000     76.000    201.000    299.000     97.000     99.000     74.000    100.000    186.000    139.000    117.000    599.000    102.000    157.000    101.000    127.000    316.000    176.000    202.000    143.000    133.000    125.000    123.000    207.000    106.000     72.000     89.000    143.000    144.000    103.000    246.000    129.000    127.000    110.000    205.000     90.000    277.000    157.000    141.000    134.000    164.000    146.000    224.000  44722.000     0.0000     0.0000    -0.0310     0.0000    -0.8000     0.0000   -80.0000    -0.0016     0.0005     0.0403    -0.8000    13.0000     5.5000     5.5000    15.0000    -1.0055     1.5000    75.0000     1.0000    75.713
    107    13.3000     45.000  15326.000  51585.000     81.000     86.000    196.000    318.000     91.000    102.000     83.000    110.000    192.000     97.000    111.000    566.000    103.000    140.000    108.000    134.000    363.000    161.000    291.000    148.000    131.000    114.000     95.000    203.000    128.000     88.000    110.000    156.000    137.000     94.000    227.000    118.000    130.000    131.000    193.000    140.000    237.000    153.000    138.000     98.000    166.000    129.000    246.000  44742.000     0.0000     0.0000    -0.0310     0.0000    -0.8000     0.0000   -80.0000    -0.0016     0.0005     0.0403    -0.8000    13.0000     5.5000     5.5000    15.0000    -1.0055     1.5000    75.0000     1.0000    75.510
    108    13.3500     45.000  15133.000  51806.000     80.000     87.000    202.000    309.000    102.000     77.000    121.000    115.000    223.000    118.000    131.000    456.000     98.000    166.000    138.000    122.000    366.000    118.000    350.000    232.000    123.000    123.000    130.000    229.000    121.000     91.000     97.000    161.000    177.000     93.000    200.000    118.000    142.000    125.000    210.000    111.000    259.000    165.000    141.000    118.000    198.000     98.000    243.000  44722.000     0.0000     0.0000    -0.0310     0.0000    -0.8000     0.0000   -80.0000    -0.0016     0.0005     0.0403    -0.8000    13.0000     5.5000     5.5000    15.0000    -1.0055     1.5000    75.0000     1.0000    75.258
    109    13.4000     45.000  15439.000  52155.000     75.000     89.000    225.000    347.000     87.000    100.000    130.000    110.000    304.000    101.000    133.000    369.000     94.000    160.000    133.000    127.000    347.000    131.000    448.000    216.000    131.000    127.000    124.000    210.000    115.000     69.000    118.000    172.000    171.000    121.000    207.000    135.000    172.000    140.000    178.000    101.000    255.000    148.000    117.000    103.000    191.000    140.000    263.000  44921.000     0.0000     0.0000    -0.0310     0.0000    -0.8000     0.0000   -80.0000    -0.0016     0.0005     0.0403    -0.8000    13.0000     5.5000     5.5000    15.0000    -1.0055     1.5000    75.0000     1.0000    74.993
    110    13.4500     45.000  15535.000  52167.000     74.000     66.000    244.000    318.000     91.000     84.000    124.000    141.000    358.000    101.000    134.000    278.000     87.000    149.000    106.000    125.000    441.000    109.000    574.000    252.000    125.000    109.000    129.000    187.000    146.000     64.000    117.000    164.000    187.000    100.000    163.000    131.000    137.000    147.000    169.000    120.000    226.000    163.000    108.000    105.000    218.000    128.000    266.000  44902.000     0.0000     0.0000    -0.0310     0.0000    -0.8000     0.0000   -80.0000    -0.0016     0.0005     0.0403    -0.8000    13.0000     5.5000     5.5000    15.0000    -1.0055     1.5000    75.0000     1.0000    74.781
    111    13.5000     45.000  15602.000  52597.000     94.000     68.000    278.000    270.000    114.000     85.000    170.000    169.000    461.000     82.000    121.000    237.000     97.000    175.000    114.000    127.000    433.000    122.000    764.000    287.000    106.000    144.000    108.000    205.000    126.000     79.000    119.000    144.000    181.000     98.000    183.000    147.000    122.000    115.000    183.000    116.000    228.000    151.000    121.000    138.000    178.000    123.000    293.000  44921.000     0.0000     0.0000    -0.0310     0.0000    -0.8000     0.0000   -80.0000    -0.0016     0.0005     0.0403    -0.8000    13.0000     5.5000     5.5000    15.0000    -1.0055     1.5000    75.0000     1.0000    74.556
    112    13.5500     45.000  15569.000  52619.000     86.000     74.000    296.000    248.000    103.000     87.000    215.000    186.000    535.000     97.000    127.000    201.000     90.000    131.000    110.000    149.000    438.000    127.000    917.000    305.000    123.000    106.000    109.000    172.000    155.000     80.000    130.000    134.000    217.000    119.000    168.000    129.000    149.000    130.000    188.000    119.000    205.000    154.000     89.000    107.000    218.000    127.000    267.000  44702.000     0.0000     0.0000    -0.0310     0.0000    -0.8000     0.0000   -80.0000    -0.0016     0.0005     0.0403    -0.8000    13.0000     5.5000     5.5000    15.0000    -1.0055     1.5000    75.0000     1.0000    74.338
    113    13.6000     45.000  15526.000  52949.000     92.000     84.000    333.000    204.000     80.000     87.000    218.000    239.000    631.000    109.000    168.000    149.000    105.000    129.000     98.000    129.000    426.000    116.000   1044.000    286.000    116.000    101.000    122.000    185.000    191.000     76.000    129.000    163.000    216.000    104.000    153.000    102.000    119.000    147.000    195.000    126.000    220.000    152.000    111.000    126.000    229.000    126.000    311.000  44702.000     0.0000     0.0000    -0.0310     0.0000    -0.8000     0.0000   -80.0000    -0.0016     0.0005     0.0403    -0.8000    13.0000     5.5000     5.5000    15.0000    -1.0055     1.5000    75.0000     1.0000    74.113
    114    13.6500     45.000  15385.000  53260.000     91.000     73.000    383.000    178.000     92.000     91.000    252.000    268.000    627.000    104.000    173.000    169.000    120.000    101.000    102.000    123.000    433.000    131.000   1067.000    287.000    101.000    111.000    131.000    175.000    182.000     87.000    131.000    177.000    226.000    108.000    141.000    125.000    129.000    136.000    157.000    116.000    199.000    152.000    116.000    118.000    196.000    137.000    323.000  44921.000     0.0000     0.0000    -0.0310     0.0000    -0.8000     0.0000   -80.0000    -0.0016     0.0005     0.0403    -0.8000    13.0000     5.5000     5.5000    15.0000    -1.0055     1.5000    75.0000     1.0000    73.872
    115    13.7000     45.000  15290.000  53415.000     76.000     93.000    428.000    151.000     92.000     77.000    269.000    323.000    617.000    109.000    187.000    162.000    103.000    114.000    111.000    120.000    383.000    108.000   1122.000    222.000     99.000    125.000    128.000    200.000    179.000     93.000    129.000    162.000    271.000    123.000    132.000    127.000    118.000    144.000    167.000    121.000    189.000    167.000     99.000    117.000    235.000    143.000    359.000  44921.000     0.0000     0.0000    -0.0310     0.0000    -0.8000     0.0000   -80.0000    -0.0016     0.0005     0.0403    -0.8000    13.0000     5.5000     5.5000    15.0000    -1.0055     1.5000    75.0000     1.0000    73.658
    116    13.7500     45.000  15388.000  53232.000     74.000     85.000    451.000    122.000     94.000     85.000    293.000    349.000    521.000    129.000    203.000    169.000    116.000    125.000     95.000    130.000    333.000    134.000   1046.000    209.000    121.000    143.000    123.000    164.000    190.000     77.000    139.000    146.000    260.000    122.000    118.000    119.000    133.000    130.000    168.000    128.000    188.000    150.000    112.000    103.000    215.000    136.000    363.000  44921.000     0.0000     0.0000    -0.0310     0.0000    -0.8000     0.0000   -80.0000    -0.0016     0.0005     0.0403    -0.8000    13.0000     5.5000     5.5000    15.0000    -1.0055     1.5000    75.0000     1.0000    73.435
    117    13.8000     45.000  15448.000  52874.000     71.000     89.000    436.000    113.000     88.000    104.000    287.000    339.000    434.000    127.000    208.000    200.000    106.000    104.000     88.000    149.000    285.000    152.000    935.000    179.000     98.000    128.000    133.000    194.000    221.000     78.000    121.000    141.000    229.000    108.000    103.000    123.000    122.000    148.000    166.000    127.000    164.000    170.000    105.000    114.000    186.000    130.000    389.000  44882.000     0.0000     0.0000    -0.0310     0.0000    -0.8000     0.0000   -80.0000    -0.0016     0.0005     0.0403    -0.8000    13.0000     5.5000     5.5000    15.0000    -1.0055     1.5000    75.0000     1.0000    73.292
    118    13.8500     45.000  15368.000  52418.000     98.000     92.000    413.000    130.000     82.000     73.000    238.000    277.000    362.000    139.000    215.000    220.000    106.000    124.000     96.000    138.000    243.000    125.000    790.000    131.000    105.000    118.000    153.000    170.000    238.000     89.000    112.000    143.000    269.000    122.000    110.000    126.000    132.000    131.000    166.000    125.000    172.000    154.000    114.000    102.000    216.000    151.000    406.000  44702.000     0.0000     0.0000    -0.0310     0.0000    -0.8000     0.0000   -80.0000    -0.0016     0.0005     0.0403    -0.8000    13.0000     5.5000     5.5000    15.0000    -1.0055     1.5000    75.0000     1.0000    73.622
    119    13.9000     45.000  15364.000  52102.000     68.000     80.000    339.000    158.000     87.000     77.000    194.000    256.000    299.000    184.000    193.000    264.000     96.000     98.000    121.000    157.000    250.000    151.000    652.000    144.000    108.000    128.000    151.000    157.000    237.000     95.000    146.000    135.000    232.000     97.000    108.000    133.000    112.000    150.000    169.000    108.000    181.000    127.000    108.000    115.000    207.000    130.000    378.000  44722.000     0.0000     0.0000    -0.0310     0.0000    -0.8000     0.0000   -80.0000    -0.0016     0.0005     0.0403    -0.8000    13.0000     5.5000     5.5000    15.0000    -1.0055     1.5000    75.0000     1.0000    74.387
    120    13.9500     45.000  15600.000  51909.000     65.000     74.000    321.000    157.000    101.000     93.000    155.000    211.000    243.000    196.000    221.000    273.000    110.000     91.000    105.000    160.000    175.000    124.000    449.000    135.000    104.000    138.000    150.000    185.000    204.000     91.000    148.000     99.000    234.000    130.000    106.000    138.000    126.000    136.000    140.000    112.000    148.000    142.000    125.000    117.000    202.000    125.000    428.000  44922.000     0.0000     0.0000    -0.0310     0.0000    -0.8000     0.0000   -80.0000    -0.0016     0.0005     0.0403    -0.8000    13.0000     5.5000     5.5000    15.0000    -1.0055     1.5000    75.0000     1.0000    75.202
    121    14.0000     45.000  15393.000  51751.000     77.000     92.000    244.000    184.000     93.000     90.000    151.000    172.000    210.000    183.000    227.000    282.000    107.000    102.000    114.000    158.000    194.000    119.000    342.000    135.000    100.000    135.000    128.000    165.000    214.000     99.000    124.000    137.000    225.000    126.000    110.000    122.000    135.000    170.000    159.000    116.000    153.000    161.000    128.000    113.000    221.000    131.000    401.000  44902.000     0.0000     0.0000    -0.0310     0.0000    -0.8000     0.0000   -80.0000    -0.0016     0.0005     0.0403    -0.8000    13.0000     5.5000     5.5000    15.0000    -1.0055     1.5000    75.0000     1.0000    75.858
# Sum of Counts = 1861913
# Center of Mass = 10.998840+/-0.011471
# Full Width Half-Maximum = 3.494018+/-0.002990
# 7:59:27 PM  8/18/2016   scan completed.
